Data from 1989.PennyLincolnUp.Lamp.En5.5.200Scan.071819.P2_HRD10591_17-24-23-972.txt Node
Date: Thu Jul 18 17:24:23 EDT 2019
User: cochatt
Spectrometer: HR+D1059
Trigger mode: 1
Integration Time (sec): 1.000000E-1
Scans to average: 1
Electric dark correction enabled: true
Nonlinearity correction enabled: false
Boxcar width: 0
XAxis mode: Wavelengths
Number of Pixels in Spectrum: 2048
>>>>>Begin Spectral Data<<<<<
223.165	-19.94
223.4	-19.94
223.635	-19.94
223.869	-23.94
224.104	-22.94
224.338	-13.94
224.573	-16.94
224.808	-15.94
225.042	-0.94
225.277	1.06
225.511	4.06
225.746	3.06
225.98	13.06
226.215	9.06
226.449	20.06
226.683	29.06
226.918	14.06
227.152	21.06
227.387	31.06
227.621	52.06
227.856	39.06
228.09	49.06
228.324	34.06
228.559	55.06
228.793	72.06
229.027	99.06
229.262	96.06
229.496	127.06
229.73	129.06
229.964	155.06
230.199	143.06
230.433	105.06
230.667	106.06
230.901	117.06
231.136	127.06
231.37	87.06
231.604	100.06
231.838	115.06
232.072	101.06
232.306	115.06
232.541	107.06
232.775	106.06
233.009	108.06
233.243	99.06
233.477	110.06
233.711	122.06
233.945	132.06
234.179	114.06
234.413	126.06
234.647	110.06
234.881	118.06
235.115	123.06
235.349	117.06
235.583	126.06
235.817	111.06
236.051	128.06
236.285	115.06
236.519	131.06
236.753	140.06
236.987	147.06
237.221	167.06
237.455	240.06
237.689	203.06
237.922	156.06
238.156	139.06
238.39	137.06
238.624	116.06
238.858	136.06
239.091	122.06
239.325	123.06
239.559	137.06
239.793	131.06
240.027	132.06
240.26	136.06
240.494	147.06
240.728	169.06
240.961	152.06
241.195	148.06
241.429	151.06
241.662	156.06
241.896	131.06
242.13	133.06
242.363	136.06
242.597	139.06
242.83	143.06
243.064	127.06
243.298	139.06
243.531	138.06
243.765	146.06
243.998	139.06
244.232	146.06
244.465	155.06
244.699	161.06
244.932	157.06
245.166	138.06
245.399	139.06
245.633	156.06
245.866	157.06
246.099	147.06
246.333	148.06
246.566	153.06
246.8	155.06
247.033	158.06
247.266	159.06
247.5	177.06
247.733	175.06
247.966	185.06
248.2	187.06
248.433	185.06
248.666	183.06
248.899	202.06
249.133	204.06
249.366	203.06
249.599	195.06
249.832	200.06
250.066	186.06
250.299	186.06
250.532	184.06
250.765	203.06
250.998	210.06
251.231	223.06
251.465	214.06
251.698	211.06
251.931	209.06
252.164	220.06
252.397	205.06
252.63	225.06
252.863	204.06
253.096	247.06
253.329	243.06
253.562	242.06
253.795	231.06
254.028	219.06
254.261	253.06
254.494	248.06
254.727	282.06
254.96	305.06
255.193	299.06
255.426	250.06
255.659	276.06
255.892	257.06
256.124	237.06
256.357	259.06
256.59	234.06
256.823	212.06
257.056	239.06
257.289	224.06
257.521	209.06
257.754	223.06
257.987	210.06
258.22	227.06
258.452	225.06
258.685	236.06
258.918	219.06
259.151	221.06
259.383	233.06
259.616	241.06
259.849	237.06
260.081	219.06
260.314	265.06
260.547	268.06
260.779	261.06
261.012	256.06
261.244	244.06
261.477	258.06
261.71	263.06
261.942	248.06
262.175	246.06
262.407	256.06
262.64	237.06
262.872	227.06
263.105	219.06
263.337	212.06
263.57	224.06
263.802	208.06
264.035	230.06
264.267	221.06
264.499	242.06
264.732	231.06
264.964	222.06
265.197	221.06
265.429	236.06
265.661	231.06
265.894	240.06
266.126	231.06
266.358	216.06
266.591	233.06
266.823	235.06
267.055	239.06
267.287	231.06
267.52	237.06
267.752	229.06
267.984	234.06
268.216	236.06
268.448	251.06
268.681	269.06
268.913	278.06
269.145	273.06
269.377	297.06
269.609	290.06
269.841	293.06
270.073	284.06
270.306	301.06
270.538	335.06
270.77	327.06
271.002	321.06
271.234	340.06
271.466	341.06
271.698	329.06
271.93	347.06
272.162	342.06
272.394	337.06
272.626	333.06
272.858	311.06
273.09	304.06
273.322	315.06
273.553	288.06
273.785	287.06
274.017	273.06
274.249	267.06
274.481	286.06
274.713	285.06
274.945	297.06
275.176	287.06
275.408	289.06
275.64	281.06
275.872	267.06
276.104	268.06
276.335	281.06
276.567	284.06
276.799	308.06
277.031	321.06
277.262	344.06
277.494	333.06
277.726	332.06
277.957	303.06
278.189	291.06
278.421	303.06
278.652	291.06
278.884	283.06
279.115	285.06
279.347	288.06
279.579	279.06
279.81	271.06
280.042	267.06
280.273	270.06
280.505	306.06
280.736	270.06
280.968	274.06
281.199	275.06
281.431	272.06
281.662	289.06
281.894	280.06
282.125	281.06
282.356	311.06
282.588	331.06
282.819	317.06
283.051	288.06
283.282	289.06
283.513	290.06
283.745	281.06
283.976	287.06
284.207	287.06
284.439	288.06
284.67	297.06
284.901	294.06
285.132	305.06
285.364	299.06
285.595	284.06
285.826	291.06
286.057	282.06
286.288	297.06
286.52	295.06
286.751	301.06
286.982	294.06
287.213	279.06
287.444	303.06
287.675	330.06
287.906	305.06
288.138	301.06
288.369	295.06
288.6	326.06
288.831	300.06
289.062	319.06
289.293	302.06
289.524	291.06
289.755	321.06
289.986	289.06
290.217	312.06
290.448	309.06
290.679	301.06
290.91	300.06
291.141	309.06
291.371	297.06
291.602	307.06
291.833	298.06
292.064	279.06
292.295	315.06
292.526	301.06
292.757	290.06
292.987	297.06
293.218	286.06
293.449	278.06
293.68	303.06
293.91	299.06
294.141	277.06
294.372	288.06
294.603	311.06
294.833	305.06
295.064	308.06
295.295	311.06
295.525	295.06
295.756	300.06
295.987	317.06
296.217	343.06
296.448	337.06
296.679	330.06
296.909	301.06
297.14	305.06
297.37	284.06
297.601	291.06
297.831	320.06
298.062	301.06
298.292	321.06
298.523	308.06
298.753	311.06
298.984	320.06
299.214	307.06
299.445	328.06
299.675	322.06
299.905	292.06
300.136	315.06
300.366	307.06
300.597	331.06
300.827	316.06
301.057	337.06
301.288	336.06
301.518	322.06
301.748	312.06
301.979	323.06
302.209	321.06
302.439	339.06
302.669	350.06
302.9	337.06
303.13	347.06
303.36	339.06
303.59	358.06
303.82	330.06
304.051	365.06
304.281	334.06
304.511	334.06
304.741	331.06
304.971	313.06
305.201	339.06
305.431	340.06
305.661	340.06
305.891	347.06
306.121	345.06
306.352	328.06
306.582	353.06
306.812	354.06
307.042	355.06
307.272	330.06
307.502	335.06
307.731	359.06
307.961	336.06
308.191	332.06
308.421	334.06
308.651	344.06
308.881	347.06
309.111	342.06
309.341	358.06
309.571	359.06
309.8	388.06
310.03	391.06
310.26	395.06
310.49	388.06
310.72	399.06
310.949	404.06
311.179	398.06
311.409	385.06
311.639	383.06
311.868	386.06
312.098	386.06
312.328	392.06
312.557	432.06
312.787	436.06
313.017	423.06
313.246	397.06
313.476	375.06
313.706	403.06
313.935	417.06
314.165	408.06
314.394	407.06
314.624	414.06
314.853	392.06
315.083	400.06
315.312	389.06
315.542	383.06
315.771	383.06
316.001	376.06
316.23	383.06
316.46	407.06
316.689	384.06
316.919	379.06
317.148	412.06
317.377	406.06
317.607	419.06
317.836	379.06
318.065	394.06
318.295	377.06
318.524	391.06
318.753	379.06
318.983	391.06
319.212	397.06
319.441	389.06
319.67	403.06
319.9	401.06
320.129	379.06
320.358	396.06
320.587	404.06
320.816	422.06
321.046	418.06
321.275	424.06
321.504	426.06
321.733	420.06
321.962	447.06
322.191	433.06
322.42	443.06
322.649	450.06
322.878	490.06
323.108	488.06
323.337	520.06
323.566	523.06
323.795	564.06
324.024	623.06
324.253	765.06
324.482	1078.06
324.71	1703.06
324.939	2379.06
325.168	2083.06
325.397	1068.06
325.626	705.06
325.855	608.06
326.084	568.06
326.313	548.06
326.542	527.06
326.77	591.06
326.999	697.06
327.228	989.06
327.457	1488.06
327.686	1795.06
327.914	1201.06
328.143	793.06
328.372	684.06
328.6	633.06
328.829	596.06
329.058	597.06
329.287	628.06
329.515	590.06
329.744	534.06
329.972	506.06
330.201	512.06
330.43	563.06
330.658	599.06
330.887	658.06
331.115	627.06
331.344	544.06
331.572	493.06
331.801	513.06
332.03	500.06
332.258	485.06
332.486	463.06
332.715	450.06
332.943	441.06
333.172	457.06
333.4	443.06
333.629	466.06
333.857	475.06
334.085	464.06
334.314	450.06
334.542	444.06
334.771	463.06
334.999	459.06
335.227	455.06
335.455	447.06
335.684	450.06
335.912	446.06
336.14	443.06
336.369	447.06
336.597	436.06
336.825	449.06
337.053	460.06
337.281	446.06
337.51	447.06
337.738	445.06
337.966	433.06
338.194	441.06
338.422	456.06
338.65	415.06
338.878	419.06
339.106	415.06
339.334	420.06
339.562	405.06
339.79	403.06
340.018	427.06
340.246	452.06
340.474	443.06
340.702	436.06
340.93	424.06
341.158	413.06
341.386	425.06
341.614	424.06
341.842	443.06
342.07	446.06
342.298	423.06
342.526	403.06
342.754	404.06
342.981	400.06
343.209	409.06
343.437	427.06
343.665	420.06
343.893	422.06
344.12	429.06
344.348	433.06
344.576	451.06
344.804	438.06
345.031	465.06
345.259	440.06
345.487	456.06
345.714	449.06
345.942	418.06
346.17	405.06
346.397	431.06
346.625	423.06
346.853	421.06
347.08	401.06
347.308	423.06
347.535	449.06
347.763	433.06
347.99	452.06
348.218	436.06
348.445	433.06
348.673	420.06
348.9	435.06
349.128	426.06
349.355	415.06
349.583	433.06
349.81	403.06
350.037	404.06
350.265	392.06
350.492	396.06
350.72	391.06
350.947	381.06
351.174	413.06
351.402	437.06
351.629	414.06
351.856	413.06
352.083	425.06
352.311	449.06
352.538	442.06
352.765	442.06
352.992	423.06
353.22	425.06
353.447	409.06
353.674	401.06
353.901	385.06
354.128	393.06
354.355	385.06
354.583	412.06
354.81	396.06
355.037	392.06
355.264	392.06
355.491	367.06
355.718	405.06
355.945	380.06
356.172	374.06
356.399	377.06
356.626	381.06
356.853	384.06
357.08	356.06
357.307	355.06
357.534	368.06
357.761	361.06
357.988	385.06
358.215	368.06
358.441	360.06
358.668	369.06
358.895	395.06
359.122	387.06
359.349	396.06
359.576	412.06
359.802	433.06
360.029	488.06
360.256	476.06
360.483	454.06
360.709	424.06
360.936	429.06
361.163	438.06
361.39	427.06
361.616	418.06
361.843	420.06
362.07	418.06
362.296	409.06
362.523	413.06
362.749	410.06
362.976	376.06
363.203	397.06
363.429	407.06
363.656	397.06
363.882	374.06
364.109	387.06
364.335	378.06
364.562	375.06
364.788	404.06
365.015	401.06
365.241	395.06
365.468	417.06
365.694	387.06
365.92	385.06
366.147	398.06
366.373	382.06
366.599	402.06
366.826	384.06
367.052	381.06
367.278	373.06
367.505	381.06
367.731	392.06
367.957	384.06
368.184	393.06
368.41	396.06
368.636	381.06
368.862	416.06
369.089	417.06
369.315	384.06
369.541	389.06
369.767	389.06
369.993	397.06
370.219	391.06
370.445	376.06
370.672	381.06
370.898	367.06
371.124	361.06
371.35	389.06
371.576	373.06
371.802	357.06
372.028	375.06
372.254	377.06
372.48	361.06
372.706	374.06
372.932	378.06
373.158	376.06
373.384	368.06
373.61	384.06
373.835	396.06
374.061	400.06
374.287	386.06
374.513	393.06
374.739	379.06
374.965	388.06
375.191	374.06
375.416	379.06
375.642	389.06
375.868	396.06
376.094	391.06
376.319	376.06
376.545	384.06
376.771	376.06
376.997	386.06
377.222	397.06
377.448	382.06
377.674	375.06
377.899	375.06
378.125	386.06
378.35	376.06
378.576	352.06
378.802	379.06
379.027	349.06
379.253	368.06
379.478	373.06
379.704	376.06
379.929	357.06
380.155	383.06
380.38	376.06
380.606	375.06
380.831	377.06
381.057	375.06
381.282	368.06
381.507	369.06
381.733	373.06
381.958	371.06
382.184	382.06
382.409	373.06
382.634	376.06
382.86	377.06
383.085	389.06
383.31	381.06
383.535	385.06
383.761	403.06
383.986	380.06
384.211	376.06
384.436	386.06
384.662	385.06
384.887	377.06
385.112	367.06
385.337	386.06
385.562	399.06
385.787	411.06
386.013	408.06
386.238	405.06
386.463	388.06
386.688	401.06
386.913	382.06
387.138	404.06
387.363	405.06
387.588	377.06
387.813	384.06
388.038	384.06
388.263	414.06
388.488	407.06
388.713	402.06
388.938	406.06
389.163	406.06
389.387	396.06
389.612	398.06
389.837	379.06
390.062	383.06
390.287	375.06
390.512	397.06
390.736	387.06
390.961	394.06
391.186	401.06
391.411	387.06
391.636	397.06
391.86	388.06
392.085	401.06
392.31	393.06
392.534	417.06
392.759	417.06
392.984	392.06
393.208	397.06
393.433	400.06
393.658	411.06
393.882	385.06
394.107	387.06
394.331	385.06
394.556	397.06
394.78	393.06
395.005	375.06
395.229	389.06
395.454	426.06
395.678	396.06
395.903	415.06
396.127	439.06
396.352	427.06
396.576	422.06
396.801	413.06
397.025	422.06
397.249	404.06
397.474	419.06
397.698	409.06
397.922	445.06
398.147	444.06
398.371	450.06
398.595	415.06
398.82	423.06
399.044	442.06
399.268	443.06
399.492	488.06
399.717	505.06
399.941	509.06
400.165	552.06
400.389	552.06
400.613	516.06
400.837	492.06
401.062	481.06
401.286	443.06
401.51	439.06
401.734	447.06
401.958	451.06
402.182	454.06
402.406	465.06
402.63	479.06
402.854	451.06
403.078	453.06
403.302	472.06
403.526	485.06
403.75	463.06
403.974	449.06
404.198	471.06
404.422	465.06
404.645	457.06
404.869	470.06
405.093	476.06
405.317	481.06
405.541	525.06
405.765	496.06
405.988	484.06
406.212	511.06
406.436	517.06
406.66	537.06
406.883	507.06
407.107	516.06
407.331	539.06
407.555	624.06
407.778	624.06
408.002	562.06
408.226	526.06
408.449	501.06
408.673	516.06
408.896	533.06
409.12	583.06
409.344	533.06
409.567	495.06
409.791	481.06
410.014	462.06
410.238	469.06
410.461	451.06
410.685	479.06
410.908	488.06
411.132	507.06
411.355	561.06
411.578	525.06
411.802	479.06
412.025	457.06
412.249	439.06
412.472	468.06
412.695	468.06
412.919	466.06
413.142	462.06
413.365	431.06
413.589	442.06
413.812	443.06
414.035	438.06
414.258	450.06
414.482	431.06
414.705	445.06
414.928	439.06
415.151	438.06
415.374	428.06
415.597	421.06
415.821	431.06
416.044	409.06
416.267	425.06
416.49	439.06
416.713	424.06
416.936	435.06
417.159	429.06
417.382	427.06
417.605	444.06
417.828	440.06
418.051	479.06
418.274	447.06
418.497	426.06
418.72	440.06
418.943	428.06
419.166	453.06
419.389	451.06
419.611	487.06
419.834	466.06
420.057	461.06
420.28	457.06
420.503	450.06
420.726	439.06
420.948	465.06
421.171	518.06
421.394	544.06
421.617	499.06
421.839	460.06
422.062	476.06
422.285	484.06
422.507	545.06
422.73	605.06
422.953	584.06
423.175	511.06
423.398	497.06
423.621	483.06
423.843	501.06
424.066	500.06
424.288	497.06
424.511	522.06
424.733	547.06
424.956	664.06
425.178	597.06
425.401	609.06
425.623	637.06
425.846	549.06
426.068	529.06
426.291	502.06
426.513	519.06
426.735	534.06
426.958	579.06
427.18	622.06
427.402	764.06
427.625	841.06
427.847	736.06
428.069	611.06
428.292	539.06
428.514	517.06
428.736	492.06
428.958	497.06
429.181	464.06
429.403	468.06
429.625	491.06
429.847	519.06
430.069	567.06
430.292	577.06
430.514	488.06
430.736	477.06
430.958	475.06
431.18	450.06
431.402	448.06
431.624	440.06
431.846	431.06
432.068	424.06
432.29	431.06
432.512	453.06
432.734	440.06
432.956	450.06
433.178	443.06
433.4	461.06
433.622	424.06
433.844	447.06
434.066	455.06
434.287	423.06
434.509	431.06
434.731	428.06
434.953	463.06
435.175	446.06
435.397	495.06
435.618	508.06
435.84	537.06
436.062	641.06
436.284	713.06
436.505	584.06
436.727	520.06
436.949	492.06
437.17	475.06
437.392	464.06
437.614	482.06
437.835	526.06
438.057	610.06
438.278	691.06
438.5	719.06
438.721	793.06
438.943	758.06
439.165	584.06
439.386	532.06
439.608	543.06
439.829	563.06
440.05	519.06
440.272	571.06
440.493	569.06
440.715	486.06
440.936	484.06
441.158	489.06
441.379	472.06
441.6	498.06
441.822	483.06
442.043	537.06
442.264	588.06
442.486	676.06
442.707	559.06
442.928	505.06
443.149	518.06
443.371	558.06
443.592	590.06
443.813	695.06
444.034	718.06
444.255	604.06
444.476	534.06
444.698	482.06
444.919	496.06
445.14	575.06
445.361	545.06
445.582	555.06
445.803	617.06
446.024	719.06
446.245	719.06
446.466	656.06
446.687	593.06
446.908	530.06
447.129	472.06
447.35	481.06
447.571	479.06
447.792	454.06
448.013	448.06
448.234	488.06
448.455	562.06
448.675	632.06
448.896	748.06
449.117	651.06
449.338	632.06
449.559	683.06
449.779	805.06
450	649.06
450.221	540.06
450.442	504.06
450.662	487.06
450.883	483.06
451.104	487.06
451.324	467.06
451.545	451.06
451.766	450.06
451.986	421.06
452.207	419.06
452.428	405.06
452.648	452.06
452.869	417.06
453.089	445.06
453.31	426.06
453.53	428.06
453.751	408.06
453.971	420.06
454.192	453.06
454.412	441.06
454.633	413.06
454.853	436.06
455.073	414.06
455.294	438.06
455.514	511.06
455.734	491.06
455.955	424.06
456.175	389.06
456.395	377.06
456.616	394.06
456.836	394.06
457.056	392.06
457.276	382.06
457.497	397.06
457.717	388.06
457.937	411.06
458.157	393.06
458.377	405.06
458.598	445.06
458.818	488.06
459.038	574.06
459.258	583.06
459.478	505.06
459.698	437.06
459.918	423.06
460.138	410.06
460.358	429.06
460.578	442.06
460.798	423.06
461.018	457.06
461.238	400.06
461.458	436.06
461.678	425.06
461.898	435.06
462.118	438.06
462.338	421.06
462.558	438.06
462.777	443.06
462.997	440.06
463.217	444.06
463.437	471.06
463.657	451.06
463.876	462.06
464.096	445.06
464.316	452.06
464.536	457.06
464.755	466.06
464.975	482.06
465.195	495.06
465.414	598.06
465.634	527.06
465.854	474.06
466.073	449.06
466.293	449.06
466.512	434.06
466.732	419.06
466.951	414.06
467.171	411.06
467.391	410.06
467.61	431.06
467.829	428.06
468.049	425.06
468.268	415.06
468.488	389.06
468.707	407.06
468.927	415.06
469.146	389.06
469.365	406.06
469.585	410.06
469.804	426.06
470.023	410.06
470.243	415.06
470.462	440.06
470.681	462.06
470.901	459.06
471.12	403.06
471.339	425.06
471.558	434.06
471.777	436.06
471.997	412.06
472.216	428.06
472.435	396.06
472.654	416.06
472.873	421.06
473.092	401.06
473.311	417.06
473.53	439.06
473.749	424.06
473.968	474.06
474.187	581.06
474.406	591.06
474.625	511.06
474.844	438.06
475.063	444.06
475.282	426.06
475.501	428.06
475.72	431.06
475.939	441.06
476.158	448.06
476.377	421.06
476.596	431.06
476.814	441.06
477.033	447.06
477.252	460.06
477.471	452.06
477.69	454.06
477.908	458.06
478.127	453.06
478.346	467.06
478.564	470.06
478.783	489.06
479.002	488.06
479.22	494.06
479.439	497.06
479.658	521.06
479.876	506.06
480.095	529.06
480.313	567.06
480.532	521.06
480.751	533.06
480.969	513.06
481.188	533.06
481.406	528.06
481.624	522.06
481.843	511.06
482.061	484.06
482.28	496.06
482.498	514.06
482.717	484.06
482.935	493.06
483.153	487.06
483.372	493.06
483.59	481.06
483.808	517.06
484.027	490.06
484.245	488.06
484.463	493.06
484.681	514.06
484.9	506.06
485.118	523.06
485.336	501.06
485.554	524.06
485.772	514.06
485.99	521.06
486.209	499.06
486.427	516.06
486.645	537.06
486.863	561.06
487.081	544.06
487.299	517.06
487.517	545.06
487.735	543.06
487.953	525.06
488.171	541.06
488.389	523.06
488.607	548.06
488.825	535.06
489.043	540.06
489.261	545.06
489.479	543.06
489.696	575.06
489.914	545.06
490.132	536.06
490.35	581.06
490.568	555.06
490.786	557.06
491.003	584.06
491.221	593.06
491.439	609.06
491.657	618.06
491.874	604.06
492.092	629.06
492.31	588.06
492.527	606.06
492.745	603.06
492.963	613.06
493.18	616.06
493.398	633.06
493.615	641.06
493.833	659.06
494.05	617.06
494.268	633.06
494.485	644.06
494.703	627.06
494.92	632.06
495.138	637.06
495.355	657.06
495.573	631.06
495.79	643.06
496.008	636.06
496.225	668.06
496.442	648.06
496.66	628.06
496.877	608.06
497.094	649.06
497.312	629.06
497.529	648.06
497.746	665.06
497.963	659.06
498.181	676.06
498.398	693.06
498.615	693.06
498.832	683.06
499.049	685.06
499.267	693.06
499.484	738.06
499.701	745.06
499.918	766.06
500.135	810.06
500.352	844.06
500.569	811.06
500.786	809.06
501.003	804.06
501.22	824.06
501.437	819.06
501.654	783.06
501.871	791.06
