Data from 1989.PennyLincolnUp.Lamp.En5.5.200Scan.071819.P2_HRD10591_17-25-24-973.txt Node
Date: Thu Jul 18 17:25:24 EDT 2019
User: cochatt
Spectrometer: HR+D1059
Trigger mode: 1
Integration Time (sec): 1.000000E-1
Scans to average: 1
Electric dark correction enabled: true
Nonlinearity correction enabled: false
Boxcar width: 0
XAxis mode: Wavelengths
Number of Pixels in Spectrum: 2048
>>>>>Begin Spectral Data<<<<<
223.165	-11.25
223.4	-11.25
223.635	-11.25
223.869	-16.25
224.104	-21.25
224.338	0.75
224.573	-20.25
224.808	-11.25
225.042	-19.25
225.277	-12.25
225.511	-14.25
225.746	-4.25
225.98	20.75
226.215	14.75
226.449	8.75
226.683	22.75
226.918	26.75
227.152	35.75
227.387	37.75
227.621	36.75
227.856	19.75
228.09	30.75
228.324	49.75
228.559	54.75
228.793	56.75
229.027	94.75
229.262	94.75
229.496	110.75
229.73	132.75
229.964	160.75
230.199	136.75
230.433	133.75
230.667	118.75
230.901	106.75
231.136	116.75
231.37	100.75
231.604	122.75
231.838	120.75
232.072	106.75
232.306	108.75
232.541	110.75
232.775	117.75
233.009	112.75
233.243	111.75
233.477	106.75
233.711	122.75
233.945	116.75
234.179	118.75
234.413	117.75
234.647	134.75
234.881	128.75
235.115	119.75
235.349	133.75
235.583	116.75
235.817	117.75
236.051	133.75
236.285	132.75
236.519	131.75
236.753	121.75
236.987	154.75
237.221	196.75
237.455	244.75
237.689	196.75
237.922	148.75
238.156	141.75
238.39	133.75
238.624	120.75
238.858	131.75
239.091	112.75
239.325	131.75
239.559	121.75
239.793	122.75
240.027	140.75
240.26	137.75
240.494	167.75
240.728	158.75
240.961	158.75
241.195	168.75
241.429	140.75
241.662	131.75
241.896	129.75
242.13	146.75
242.363	126.75
242.597	141.75
242.83	132.75
243.064	139.75
243.298	126.75
243.531	147.75
243.765	141.75
243.998	139.75
244.232	146.75
244.465	139.75
244.699	154.75
244.932	148.75
245.166	156.75
245.399	155.75
245.633	169.75
245.866	141.75
246.099	148.75
246.333	149.75
246.566	154.75
246.8	151.75
247.033	164.75
247.266	176.75
247.5	195.75
247.733	186.75
247.966	175.75
248.2	182.75
248.433	190.75
248.666	184.75
248.899	195.75
249.133	209.75
249.366	229.75
249.599	204.75
249.832	196.75
250.066	178.75
250.299	200.75
250.532	191.75
250.765	228.75
250.998	224.75
251.231	243.75
251.465	240.75
251.698	223.75
251.931	211.75
252.164	195.75
252.397	217.75
252.63	223.75
252.863	242.75
253.096	249.75
253.329	252.75
253.562	255.75
253.795	223.75
254.028	245.75
254.261	254.75
254.494	251.75
254.727	288.75
254.96	311.75
255.193	308.75
255.426	269.75
255.659	250.75
255.892	257.75
256.124	258.75
256.357	262.75
256.59	272.75
256.823	231.75
257.056	235.75
257.289	249.75
257.521	234.75
257.754	247.75
257.987	238.75
258.22	223.75
258.452	245.75
258.685	232.75
258.918	230.75
259.151	232.75
259.383	242.75
259.616	242.75
259.849	252.75
260.081	243.75
260.314	264.75
260.547	287.75
260.779	266.75
261.012	266.75
261.244	276.75
261.477	267.75
261.71	246.75
261.942	262.75
262.175	279.75
262.407	246.75
262.64	239.75
262.872	228.75
263.105	233.75
263.337	240.75
263.57	238.75
263.802	226.75
264.035	218.75
264.267	207.75
264.499	220.75
264.732	227.75
264.964	232.75
265.197	220.75
265.429	236.75
265.661	235.75
265.894	227.75
266.126	235.75
266.358	233.75
266.591	227.75
266.823	236.75
267.055	241.75
267.287	247.75
267.52	257.75
267.752	244.75
267.984	243.75
268.216	258.75
268.448	245.75
268.681	237.75
268.913	242.75
269.145	290.75
269.377	289.75
269.609	292.75
269.841	289.75
270.073	312.75
270.306	319.75
270.538	335.75
270.77	349.75
271.002	338.75
271.234	330.75
271.466	331.75
271.698	347.75
271.93	337.75
272.162	340.75
272.394	358.75
272.626	326.75
272.858	328.75
273.09	291.75
273.322	299.75
273.553	288.75
273.785	279.75
274.017	290.75
274.249	276.75
274.481	282.75
274.713	288.75
274.945	294.75
275.176	281.75
275.408	302.75
275.64	284.75
275.872	306.75
276.104	298.75
276.335	283.75
276.567	297.75
276.799	321.75
277.031	332.75
277.262	336.75
277.494	357.75
277.726	324.75
277.957	326.75
278.189	303.75
278.421	291.75
278.652	292.75
278.884	300.75
279.115	294.75
279.347	292.75
279.579	285.75
279.81	282.75
280.042	276.75
280.273	268.75
280.505	298.75
280.736	282.75
280.968	281.75
281.199	307.75
281.431	278.75
281.662	290.75
281.894	282.75
282.125	278.75
282.356	312.75
282.588	326.75
282.819	327.75
283.051	304.75
283.282	273.75
283.513	291.75
283.745	291.75
283.976	303.75
284.207	307.75
284.439	294.75
284.67	285.75
284.901	279.75
285.132	291.75
285.364	291.75
285.595	305.75
285.826	287.75
286.057	284.75
286.288	272.75
286.52	297.75
286.751	312.75
286.982	287.75
287.213	274.75
287.444	305.75
287.675	295.75
287.906	304.75
288.138	322.75
288.369	306.75
288.6	329.75
288.831	302.75
289.062	316.75
289.293	305.75
289.524	297.75
289.755	313.75
289.986	299.75
290.217	315.75
290.448	300.75
290.679	316.75
290.91	297.75
291.141	301.75
291.371	294.75
291.602	289.75
291.833	291.75
292.064	304.75
292.295	289.75
292.526	292.75
292.757	319.75
292.987	304.75
293.218	299.75
293.449	291.75
293.68	299.75
293.91	311.75
294.141	292.75
294.372	310.75
294.603	327.75
294.833	290.75
295.064	310.75
295.295	314.75
295.525	318.75
295.756	301.75
295.987	301.75
296.217	340.75
296.448	378.75
296.679	307.75
296.909	310.75
297.14	302.75
297.37	325.75
297.601	316.75
297.831	312.75
298.062	330.75
298.292	324.75
298.523	311.75
298.753	326.75
298.984	310.75
299.214	321.75
299.445	334.75
299.675	321.75
299.905	335.75
300.136	336.75
300.366	336.75
300.597	310.75
300.827	339.75
301.057	322.75
301.288	344.75
301.518	368.75
301.748	353.75
301.979	350.75
302.209	320.75
302.439	356.75
302.669	336.75
302.9	320.75
303.13	334.75
303.36	344.75
303.59	352.75
303.82	370.75
304.051	352.75
304.281	344.75
304.511	322.75
304.741	344.75
304.971	342.75
305.201	333.75
305.431	325.75
305.661	339.75
305.891	320.75
306.121	339.75
306.352	358.75
306.582	352.75
306.812	345.75
307.042	353.75
307.272	338.75
307.502	351.75
307.731	361.75
307.961	348.75
308.191	340.75
308.421	348.75
308.651	353.75
308.881	356.75
309.111	350.75
309.341	361.75
309.571	364.75
309.8	378.75
310.03	378.75
310.26	407.75
310.49	386.75
310.72	398.75
310.949	429.75
311.179	458.75
311.409	411.75
311.639	384.75
311.868	406.75
312.098	405.75
312.328	415.75
312.557	408.75
312.787	447.75
313.017	411.75
313.246	392.75
313.476	388.75
313.706	402.75
313.935	416.75
314.165	410.75
314.394	422.75
314.624	420.75
314.853	387.75
315.083	400.75
315.312	375.75
315.542	387.75
315.771	387.75
316.001	376.75
316.23	423.75
316.46	396.75
316.689	402.75
316.919	385.75
317.148	413.75
317.377	404.75
317.607	404.75
317.836	396.75
318.065	414.75
318.295	393.75
318.524	386.75
318.753	391.75
318.983	394.75
319.212	396.75
319.441	393.75
319.67	410.75
319.9	415.75
320.129	414.75
320.358	410.75
320.587	409.75
320.816	418.75
321.046	407.75
321.275	411.75
321.504	429.75
321.733	418.75
321.962	439.75
322.191	460.75
322.42	465.75
322.649	491.75
322.878	491.75
323.108	492.75
323.337	529.75
323.566	558.75
323.795	550.75
324.024	650.75
324.253	816.75
324.482	1146.75
324.71	1775.75
324.939	2527.75
325.168	2169.75
325.397	1139.75
325.626	751.75
325.855	609.75
326.084	569.75
326.313	550.75
326.542	559.75
326.77	592.75
326.999	732.75
327.228	1022.75
327.457	1554.75
327.686	1920.75
327.914	1251.75
328.143	828.75
328.372	712.75
328.6	655.75
328.829	627.75
329.058	651.75
329.287	645.75
329.515	602.75
329.744	572.75
329.972	541.75
330.201	582.75
330.43	630.75
330.658	650.75
330.887	681.75
331.115	655.75
331.344	570.75
331.572	525.75
331.801	525.75
332.03	538.75
332.258	512.75
332.486	458.75
332.715	461.75
332.943	462.75
333.172	452.75
333.4	471.75
333.629	474.75
333.857	486.75
334.085	507.75
334.314	514.75
334.542	547.75
334.771	579.75
334.999	519.75
335.227	516.75
335.455	465.75
335.684	460.75
335.912	463.75
336.14	443.75
336.369	482.75
336.597	467.75
336.825	482.75
337.053	451.75
337.281	425.75
337.51	451.75
337.738	459.75
337.966	457.75
338.194	475.75
338.422	464.75
338.65	458.75
338.878	455.75
339.106	419.75
339.334	442.75
339.562	414.75
339.79	425.75
340.018	443.75
340.246	451.75
340.474	449.75
340.702	446.75
340.93	434.75
341.158	454.75
341.386	416.75
341.614	443.75
341.842	438.75
342.07	438.75
342.298	442.75
342.526	418.75
342.754	416.75
342.981	409.75
343.209	416.75
343.437	434.75
343.665	424.75
343.893	414.75
344.12	422.75
344.348	439.75
344.576	459.75
344.804	430.75
345.031	454.75
345.259	461.75
345.487	458.75
345.714	453.75
345.942	419.75
346.17	419.75
346.397	427.75
346.625	422.75
346.853	425.75
347.08	442.75
347.308	423.75
347.535	434.75
347.763	436.75
347.99	430.75
348.218	476.75
348.445	450.75
348.673	452.75
348.9	428.75
349.128	399.75
349.355	408.75
349.583	415.75
349.81	399.75
350.037	414.75
350.265	408.75
350.492	421.75
350.72	411.75
350.947	396.75
351.174	440.75
351.402	430.75
351.629	450.75
351.856	442.75
352.083	446.75
352.311	448.75
352.538	446.75
352.765	450.75
352.992	433.75
353.22	423.75
353.447	429.75
353.674	415.75
353.901	418.75
354.128	413.75
354.355	407.75
354.583	390.75
354.81	387.75
355.037	373.75
355.264	388.75
355.491	374.75
355.718	389.75
355.945	384.75
356.172	380.75
356.399	376.75
356.626	384.75
356.853	382.75
357.08	388.75
357.307	376.75
357.534	397.75
357.761	391.75
357.988	368.75
358.215	384.75
358.441	389.75
358.668	386.75
358.895	398.75
359.122	422.75
359.349	394.75
359.576	421.75
359.802	427.75
360.029	479.75
360.256	479.75
360.483	459.75
360.709	430.75
360.936	413.75
361.163	404.75
361.39	432.75
361.616	414.75
361.843	382.75
362.07	421.75
362.296	434.75
362.523	424.75
362.749	401.75
362.976	432.75
363.203	391.75
363.429	396.75
363.656	420.75
363.882	384.75
364.109	395.75
364.335	388.75
364.562	405.75
364.788	414.75
365.015	416.75
365.241	416.75
365.468	411.75
365.694	422.75
365.92	395.75
366.147	382.75
366.373	411.75
366.599	384.75
366.826	381.75
367.052	378.75
367.278	379.75
367.505	380.75
367.731	382.75
367.957	382.75
368.184	387.75
368.41	395.75
368.636	403.75
368.862	411.75
369.089	399.75
369.315	395.75
369.541	384.75
369.767	389.75
369.993	385.75
370.219	388.75
370.445	376.75
370.672	364.75
370.898	380.75
371.124	387.75
371.35	378.75
371.576	396.75
371.802	381.75
372.028	404.75
372.254	374.75
372.48	380.75
372.706	395.75
372.932	382.75
373.158	376.75
373.384	377.75
373.61	397.75
373.835	385.75
374.061	379.75
374.287	406.75
374.513	384.75
374.739	375.75
374.965	380.75
375.191	391.75
375.416	392.75
375.642	377.75
375.868	384.75
376.094	388.75
376.319	394.75
376.545	391.75
376.771	368.75
376.997	380.75
377.222	391.75
377.448	383.75
377.674	372.75
377.899	379.75
378.125	375.75
378.35	374.75
378.576	388.75
378.802	375.75
379.027	378.75
379.253	370.75
379.478	361.75
379.704	371.75
379.929	353.75
380.155	370.75
380.38	362.75
380.606	394.75
380.831	389.75
381.057	367.75
381.282	374.75
381.507	374.75
381.733	392.75
381.958	372.75
382.184	390.75
382.409	374.75
382.634	405.75
382.86	384.75
383.085	388.75
383.31	368.75
383.535	371.75
383.761	380.75
383.986	410.75
384.211	394.75
384.436	389.75
384.662	398.75
384.887	407.75
385.112	376.75
385.337	382.75
385.562	401.75
385.787	394.75
386.013	402.75
386.238	408.75
386.463	390.75
386.688	408.75
386.913	381.75
387.138	402.75
387.363	410.75
387.588	411.75
387.813	391.75
388.038	402.75
388.263	388.75
388.488	390.75
388.713	399.75
388.938	391.75
389.163	403.75
389.387	411.75
389.612	424.75
389.837	399.75
390.062	399.75
390.287	391.75
390.512	376.75
390.736	382.75
390.961	394.75
391.186	398.75
391.411	400.75
391.636	399.75
391.86	408.75
392.085	384.75
392.31	388.75
392.534	420.75
392.759	413.75
392.984	394.75
393.208	408.75
393.433	403.75
393.658	397.75
393.882	384.75
394.107	391.75
394.331	405.75
394.556	394.75
394.78	394.75
395.005	405.75
395.229	397.75
395.454	407.75
395.678	412.75
395.903	427.75
396.127	450.75
396.352	441.75
396.576	417.75
396.801	418.75
397.025	401.75
397.249	425.75
397.474	427.75
397.698	423.75
397.922	422.75
398.147	440.75
398.371	442.75
398.595	438.75
398.82	447.75
399.044	438.75
399.268	455.75
399.492	474.75
399.717	495.75
399.941	532.75
400.165	526.75
400.389	546.75
400.613	495.75
400.837	479.75
401.062	473.75
401.286	476.75
401.51	453.75
401.734	454.75
401.958	449.75
402.182	444.75
402.406	457.75
402.63	470.75
402.854	459.75
403.078	455.75
403.302	475.75
403.526	457.75
403.75	452.75
403.974	466.75
404.198	445.75
404.422	466.75
404.645	464.75
404.869	485.75
405.093	513.75
405.317	526.75
405.541	575.75
405.765	520.75
405.988	502.75
406.212	512.75
406.436	515.75
406.66	547.75
406.883	500.75
407.107	534.75
407.331	585.75
407.555	636.75
407.778	638.75
408.002	574.75
408.226	512.75
408.449	530.75
408.673	534.75
408.896	544.75
409.12	582.75
409.344	536.75
409.567	512.75
409.791	478.75
410.014	484.75
410.238	449.75
410.461	462.75
410.685	474.75
410.908	508.75
411.132	519.75
411.355	550.75
411.578	526.75
411.802	481.75
412.025	474.75
412.249	468.75
412.472	507.75
412.695	523.75
412.919	500.75
413.142	484.75
413.365	458.75
413.589	453.75
413.812	423.75
414.035	438.75
414.258	446.75
414.482	441.75
414.705	432.75
414.928	427.75
415.151	419.75
415.374	443.75
415.597	450.75
415.821	419.75
416.044	440.75
416.267	464.75
416.49	440.75
416.713	438.75
416.936	453.75
417.159	422.75
417.382	446.75
417.605	450.75
417.828	459.75
418.051	457.75
418.274	456.75
418.497	441.75
418.72	431.75
418.943	446.75
419.166	449.75
419.389	451.75
419.611	474.75
419.834	451.75
420.057	472.75
420.28	458.75
420.503	478.75
420.726	466.75
420.948	481.75
421.171	530.75
421.394	542.75
421.617	472.75
421.839	473.75
422.062	461.75
422.285	470.75
422.507	550.75
422.73	610.75
422.953	575.75
423.175	522.75
423.398	502.75
423.621	489.75
423.843	501.75
424.066	520.75
424.288	490.75
424.511	528.75
424.733	569.75
424.956	675.75
425.178	636.75
425.401	624.75
425.623	654.75
425.846	568.75
426.068	532.75
426.291	522.75
426.513	511.75
426.735	532.75
426.958	561.75
427.18	655.75
427.402	792.75
427.625	858.75
427.847	754.75
428.069	648.75
428.292	585.75
428.514	506.75
428.736	508.75
428.958	495.75
429.181	470.75
429.403	471.75
429.625	475.75
429.847	534.75
430.069	589.75
430.292	569.75
430.514	482.75
430.736	460.75
430.958	444.75
431.18	446.75
431.402	437.75
431.624	438.75
431.846	426.75
432.068	434.75
432.29	441.75
432.512	423.75
432.734	447.75
432.956	436.75
433.178	440.75
433.4	457.75
433.622	448.75
433.844	432.75
434.066	435.75
434.287	425.75
434.509	436.75
434.731	437.75
434.953	474.75
435.175	448.75
435.397	482.75
435.618	526.75
435.84	544.75
436.062	648.75
436.284	686.75
436.505	586.75
436.727	558.75
436.949	476.75
437.17	464.75
437.392	476.75
437.614	504.75
437.835	504.75
438.057	611.75
438.278	706.75
438.5	704.75
438.721	763.75
438.943	742.75
439.165	594.75
439.386	540.75
439.608	519.75
439.829	530.75
440.05	583.75
440.272	614.75
440.493	566.75
440.715	537.75
440.936	500.75
441.158	501.75
441.379	480.75
441.6	473.75
441.822	506.75
442.043	549.75
442.264	626.75
442.486	675.75
442.707	570.75
442.928	516.75
443.149	545.75
443.371	555.75
443.592	603.75
443.813	686.75
444.034	723.75
444.255	596.75
444.476	559.75
444.698	526.75
444.919	522.75
445.14	600.75
445.361	572.75
445.582	551.75
445.803	616.75
446.024	719.75
446.245	758.75
446.466	676.75
446.687	572.75
446.908	527.75
447.129	474.75
447.35	480.75
447.571	473.75
447.792	480.75
448.013	479.75
448.234	512.75
448.455	550.75
448.675	652.75
448.896	774.75
449.117	642.75
449.338	633.75
449.559	726.75
449.779	828.75
450	662.75
450.221	540.75
450.442	519.75
450.662	475.75
450.883	473.75
451.104	499.75
451.324	459.75
451.545	448.75
451.766	428.75
451.986	423.75
452.207	415.75
452.428	408.75
452.648	427.75
452.869	422.75
453.089	428.75
453.31	466.75
453.53	438.75
453.751	426.75
453.971	439.75
454.192	458.75
454.412	422.75
454.633	434.75
454.853	407.75
455.073	422.75
455.294	474.75
455.514	524.75
455.734	514.75
455.955	430.75
456.175	406.75
456.395	403.75
456.616	392.75
456.836	378.75
457.056	363.75
457.276	381.75
457.497	369.75
457.717	403.75
457.937	388.75
458.157	400.75
458.377	392.75
458.598	433.75
458.818	487.75
459.038	570.75
459.258	599.75
459.478	499.75
459.698	456.75
459.918	443.75
460.138	415.75
460.358	425.75
460.578	436.75
460.798	443.75
461.018	450.75
461.238	433.75
461.458	418.75
461.678	416.75
461.898	431.75
462.118	425.75
462.338	438.75
462.558	426.75
462.777	438.75
462.997	434.75
463.217	447.75
463.437	450.75
463.657	430.75
463.876	454.75
464.096	438.75
464.316	441.75
464.536	454.75
464.755	454.75
464.975	469.75
465.195	513.75
465.414	591.75
465.634	522.75
465.854	468.75
466.073	466.75
466.293	431.75
466.512	427.75
466.732	412.75
466.951	404.75
467.171	426.75
467.391	435.75
467.61	446.75
467.829	420.75
468.049	456.75
468.268	433.75
468.488	422.75
468.707	422.75
468.927	420.75
469.146	395.75
469.365	415.75
469.585	413.75
469.804	419.75
470.023	428.75
470.243	414.75
470.462	434.75
470.681	460.75
470.901	454.75
471.12	423.75
471.339	451.75
471.558	430.75
471.777	434.75
471.997	435.75
472.216	405.75
472.435	456.75
472.654	467.75
472.873	409.75
473.092	414.75
473.311	450.75
473.53	425.75
473.749	430.75
473.968	493.75
474.187	597.75
474.406	612.75
474.625	509.75
474.844	464.75
475.063	443.75
475.282	426.75
475.501	421.75
475.72	451.75
475.939	452.75
476.158	455.75
476.377	420.75
476.596	424.75
476.814	463.75
477.033	458.75
477.252	443.75
477.471	473.75
477.69	465.75
477.908	460.75
478.127	450.75
478.346	471.75
478.564	470.75
478.783	475.75
479.002	483.75
479.22	484.75
479.439	514.75
479.658	480.75
479.876	505.75
480.095	509.75
480.313	552.75
480.532	532.75
480.751	514.75
480.969	529.75
481.188	589.75
481.406	645.75
481.624	549.75
481.843	540.75
482.061	513.75
482.28	521.75
482.498	520.75
482.717	496.75
482.935	515.75
483.153	495.75
483.372	486.75
483.59	494.75
483.808	484.75
484.027	502.75
484.245	518.75
484.463	505.75
484.681	522.75
484.9	490.75
485.118	484.75
485.336	503.75
485.554	534.75
485.772	512.75
485.99	508.75
486.209	515.75
486.427	523.75
486.645	549.75
486.863	549.75
487.081	553.75
487.299	541.75
487.517	563.75
487.735	538.75
487.953	550.75
488.171	564.75
488.389	537.75
488.607	530.75
488.825	545.75
489.043	545.75
489.261	544.75
489.479	561.75
489.696	545.75
489.914	555.75
490.132	564.75
490.35	588.75
490.568	590.75
490.786	565.75
491.003	586.75
491.221	628.75
491.439	615.75
491.657	636.75
491.874	622.75
492.092	635.75
492.31	636.75
492.527	631.75
492.745	644.75
492.963	649.75
493.18	648.75
493.398	645.75
493.615	657.75
493.833	655.75
494.05	654.75
494.268	648.75
494.485	654.75
494.703	661.75
494.92	644.75
495.138	672.75
495.355	641.75
495.573	645.75
495.79	657.75
496.008	662.75
496.225	646.75
496.442	626.75
496.66	660.75
496.877	658.75
497.094	644.75
497.312	674.75
497.529	645.75
497.746	671.75
497.963	644.75
498.181	678.75
498.398	706.75
498.615	684.75
498.832	696.75
499.049	694.75
499.267	722.75
499.484	744.75
499.701	747.75
499.918	756.75
500.135	794.75
500.352	835.75
500.569	794.75
500.786	839.75
501.003	825.75
501.22	810.75
501.437	808.75
501.654	787.75
501.871	798.75
