Data from 1989.PennyLincolnUp.Lamp.En5.5.200Scan.071819.P2_HRD10591_17-25-57-974.txt Node
Date: Thu Jul 18 17:25:57 EDT 2019
User: cochatt
Spectrometer: HR+D1059
Trigger mode: 1
Integration Time (sec): 1.000000E-1
Scans to average: 1
Electric dark correction enabled: true
Nonlinearity correction enabled: false
Boxcar width: 0
XAxis mode: Wavelengths
Number of Pixels in Spectrum: 2048
>>>>>Begin Spectral Data<<<<<
223.165	-8.06
223.4	-8.06
223.635	-8.06
223.869	-21.06
224.104	-17.06
224.338	-7.06
224.573	-22.06
224.808	-11.06
225.042	-16.06
225.277	-12.06
225.511	-14.06
225.746	11.94
225.98	6.94
226.215	13.94
226.449	15.94
226.683	21.94
226.918	28.94
227.152	28.94
227.387	33.94
227.621	22.94
227.856	41.94
228.09	38.94
228.324	72.94
228.559	78.94
228.793	62.94
229.027	111.94
229.262	120.94
229.496	121.94
229.73	129.94
229.964	154.94
230.199	125.94
230.433	105.94
230.667	124.94
230.901	106.94
231.136	124.94
231.37	117.94
231.604	127.94
231.838	131.94
232.072	110.94
232.306	127.94
232.541	123.94
232.775	124.94
233.009	120.94
233.243	127.94
233.477	113.94
233.711	125.94
233.945	108.94
234.179	139.94
234.413	117.94
234.647	128.94
234.881	140.94
235.115	124.94
235.349	125.94
235.583	127.94
235.817	127.94
236.051	133.94
236.285	139.94
236.519	137.94
236.753	140.94
236.987	166.94
237.221	202.94
237.455	253.94
237.689	203.94
237.922	164.94
238.156	160.94
238.39	151.94
238.624	145.94
238.858	133.94
239.091	128.94
239.325	141.94
239.559	149.94
239.793	141.94
240.027	143.94
240.26	158.94
240.494	173.94
240.728	159.94
240.961	159.94
241.195	148.94
241.429	134.94
241.662	140.94
241.896	145.94
242.13	150.94
242.363	137.94
242.597	149.94
242.83	147.94
243.064	158.94
243.298	161.94
243.531	144.94
243.765	152.94
243.998	149.94
244.232	154.94
244.465	161.94
244.699	168.94
244.932	171.94
245.166	151.94
245.399	162.94
245.633	163.94
245.866	154.94
246.099	171.94
246.333	165.94
246.566	179.94
246.8	158.94
247.033	160.94
247.266	170.94
247.5	197.94
247.733	193.94
247.966	202.94
248.2	169.94
248.433	197.94
248.666	184.94
248.899	213.94
249.133	229.94
249.366	229.94
249.599	241.94
249.832	213.94
250.066	220.94
250.299	202.94
250.532	229.94
250.765	237.94
250.998	261.94
251.231	257.94
251.465	244.94
251.698	249.94
251.931	223.94
252.164	232.94
252.397	236.94
252.63	240.94
252.863	233.94
253.096	246.94
253.329	248.94
253.562	251.94
253.795	254.94
254.028	248.94
254.261	251.94
254.494	275.94
254.727	307.94
254.96	318.94
255.193	325.94
255.426	295.94
255.659	279.94
255.892	277.94
256.124	283.94
256.357	297.94
256.59	291.94
256.823	269.94
257.056	252.94
257.289	261.94
257.521	235.94
257.754	252.94
257.987	243.94
258.22	259.94
258.452	255.94
258.685	241.94
258.918	257.94
259.151	232.94
259.383	250.94
259.616	274.94
259.849	266.94
260.081	260.94
260.314	283.94
260.547	303.94
260.779	295.94
261.012	288.94
261.244	265.94
261.477	232.94
261.71	239.94
261.942	251.94
262.175	267.94
262.407	270.94
262.64	250.94
262.872	248.94
263.105	240.94
263.337	255.94
263.57	235.94
263.802	248.94
264.035	245.94
264.267	222.94
264.499	241.94
264.732	233.94
264.964	244.94
265.197	248.94
265.429	236.94
265.661	239.94
265.894	227.94
266.126	261.94
266.358	231.94
266.591	251.94
266.823	232.94
267.055	238.94
267.287	262.94
267.52	246.94
267.752	240.94
267.984	267.94
268.216	262.94
268.448	271.94
268.681	269.94
268.913	276.94
269.145	292.94
269.377	297.94
269.609	316.94
269.841	297.94
270.073	314.94
270.306	329.94
270.538	359.94
270.77	359.94
271.002	362.94
271.234	340.94
271.466	355.94
271.698	358.94
271.93	372.94
272.162	373.94
272.394	369.94
272.626	349.94
272.858	340.94
273.09	315.94
273.322	313.94
273.553	332.94
273.785	301.94
274.017	311.94
274.249	317.94
274.481	305.94
274.713	304.94
274.945	296.94
275.176	324.94
275.408	304.94
275.64	307.94
275.872	299.94
276.104	303.94
276.335	318.94
276.567	311.94
276.799	327.94
277.031	362.94
277.262	380.94
277.494	362.94
277.726	355.94
277.957	335.94
278.189	329.94
278.421	323.94
278.652	297.94
278.884	329.94
279.115	298.94
279.347	309.94
279.579	321.94
279.81	318.94
280.042	313.94
280.273	317.94
280.505	292.94
280.736	293.94
280.968	303.94
281.199	266.94
281.431	293.94
281.662	291.94
281.894	316.94
282.125	311.94
282.356	323.94
282.588	328.94
282.819	348.94
283.051	303.94
283.282	308.94
283.513	328.94
283.745	310.94
283.976	318.94
284.207	313.94
284.439	315.94
284.67	318.94
284.901	315.94
285.132	324.94
285.364	313.94
285.595	317.94
285.826	323.94
286.057	317.94
286.288	318.94
286.52	313.94
286.751	304.94
286.982	317.94
287.213	315.94
287.444	324.94
287.675	324.94
287.906	339.94
288.138	344.94
288.369	330.94
288.6	337.94
288.831	340.94
289.062	342.94
289.293	336.94
289.524	326.94
289.755	343.94
289.986	330.94
290.217	330.94
290.448	330.94
290.679	309.94
290.91	315.94
291.141	309.94
291.371	342.94
291.602	307.94
291.833	306.94
292.064	325.94
292.295	327.94
292.526	324.94
292.757	315.94
292.987	333.94
293.218	308.94
293.449	307.94
293.68	335.94
293.91	327.94
294.141	329.94
294.372	337.94
294.603	335.94
294.833	324.94
295.064	334.94
295.295	338.94
295.525	335.94
295.756	331.94
295.987	330.94
296.217	356.94
296.448	366.94
296.679	344.94
296.909	346.94
297.14	323.94
297.37	341.94
297.601	343.94
297.831	314.94
298.062	335.94
298.292	319.94
298.523	347.94
298.753	326.94
298.984	342.94
299.214	336.94
299.445	339.94
299.675	332.94
299.905	377.94
300.136	363.94
300.366	351.94
300.597	334.94
300.827	352.94
301.057	365.94
301.288	358.94
301.518	367.94
301.748	353.94
301.979	355.94
302.209	347.94
302.439	354.94
302.669	357.94
302.9	369.94
303.13	359.94
303.36	375.94
303.59	361.94
303.82	377.94
304.051	378.94
304.281	356.94
304.511	361.94
304.741	347.94
304.971	350.94
305.201	365.94
305.431	340.94
305.661	372.94
305.891	352.94
306.121	358.94
306.352	372.94
306.582	371.94
306.812	355.94
307.042	341.94
307.272	373.94
307.502	373.94
307.731	369.94
307.961	345.94
308.191	367.94
308.421	376.94
308.651	381.94
308.881	376.94
309.111	357.94
309.341	393.94
309.571	407.94
309.8	409.94
310.03	407.94
310.26	426.94
310.49	417.94
310.72	424.94
310.949	439.94
311.179	459.94
311.409	438.94
311.639	429.94
311.868	411.94
312.098	424.94
312.328	435.94
312.557	454.94
312.787	462.94
313.017	466.94
313.246	448.94
313.476	418.94
313.706	412.94
313.935	426.94
314.165	443.94
314.394	446.94
314.624	448.94
314.853	449.94
315.083	436.94
315.312	440.94
315.542	395.94
315.771	422.94
316.001	415.94
316.23	419.94
316.46	418.94
316.689	421.94
316.919	424.94
317.148	435.94
317.377	453.94
317.607	415.94
317.836	425.94
318.065	428.94
318.295	426.94
318.524	421.94
318.753	423.94
318.983	426.94
319.212	437.94
319.441	428.94
319.67	450.94
319.9	438.94
320.129	429.94
320.358	425.94
320.587	426.94
320.816	453.94
321.046	449.94
321.275	438.94
321.504	453.94
321.733	454.94
321.962	473.94
322.191	504.94
322.42	489.94
322.649	505.94
322.878	516.94
323.108	507.94
323.337	553.94
323.566	582.94
323.795	623.94
324.024	691.94
324.253	874.94
324.482	1144.94
324.71	1824.94
324.939	2620.94
325.168	2305.94
325.397	1199.94
325.626	821.94
325.855	643.94
326.084	617.94
326.313	576.94
326.542	575.94
326.77	656.94
326.999	782.94
327.228	1084.94
327.457	1599.94
327.686	1959.94
327.914	1322.94
328.143	872.94
328.372	750.94
328.6	701.94
328.829	657.94
329.058	689.94
329.287	692.94
329.515	669.94
329.744	611.94
329.972	619.94
330.201	644.94
330.43	691.94
330.658	715.94
330.887	716.94
331.115	700.94
331.344	614.94
331.572	566.94
331.801	546.94
332.03	566.94
332.258	516.94
332.486	521.94
332.715	513.94
332.943	497.94
333.172	520.94
333.4	515.94
333.629	542.94
333.857	558.94
334.085	577.94
334.314	610.94
334.542	643.94
334.771	669.94
334.999	600.94
335.227	550.94
335.455	511.94
335.684	531.94
335.912	515.94
336.14	502.94
336.369	491.94
336.597	505.94
336.825	509.94
337.053	486.94
337.281	484.94
337.51	477.94
337.738	491.94
337.966	475.94
338.194	476.94
338.422	472.94
338.65	488.94
338.878	500.94
339.106	449.94
339.334	478.94
339.562	455.94
339.79	453.94
340.018	456.94
340.246	474.94
340.474	461.94
340.702	501.94
340.93	465.94
341.158	476.94
341.386	472.94
341.614	465.94
341.842	477.94
342.07	463.94
342.298	468.94
342.526	464.94
342.754	448.94
342.981	442.94
343.209	463.94
343.437	461.94
343.665	450.94
343.893	470.94
344.12	463.94
344.348	475.94
344.576	452.94
344.804	477.94
345.031	489.94
345.259	499.94
345.487	482.94
345.714	463.94
345.942	449.94
346.17	432.94
346.397	445.94
346.625	452.94
346.853	449.94
347.08	460.94
347.308	443.94
347.535	433.94
347.763	475.94
347.99	469.94
348.218	477.94
348.445	487.94
348.673	464.94
348.9	440.94
349.128	470.94
349.355	452.94
349.583	447.94
349.81	442.94
350.037	435.94
350.265	427.94
350.492	431.94
350.72	421.94
350.947	447.94
351.174	458.94
351.402	452.94
351.629	465.94
351.856	452.94
352.083	445.94
352.311	476.94
352.538	479.94
352.765	470.94
352.992	456.94
353.22	448.94
353.447	427.94
353.674	429.94
353.901	440.94
354.128	411.94
354.355	437.94
354.583	423.94
354.81	431.94
355.037	417.94
355.264	423.94
355.491	423.94
355.718	382.94
355.945	393.94
356.172	415.94
356.399	406.94
356.626	433.94
356.853	409.94
357.08	413.94
357.307	405.94
357.534	407.94
357.761	411.94
357.988	414.94
358.215	417.94
358.441	400.94
358.668	410.94
358.895	413.94
359.122	435.94
359.349	423.94
359.576	440.94
359.802	451.94
360.029	504.94
360.256	508.94
360.483	496.94
360.709	453.94
360.936	452.94
361.163	444.94
361.39	441.94
361.616	460.94
361.843	425.94
362.07	433.94
362.296	456.94
362.523	445.94
362.749	442.94
362.976	440.94
363.203	435.94
363.429	415.94
363.656	423.94
363.882	434.94
364.109	420.94
364.335	406.94
364.562	416.94
364.788	412.94
365.015	411.94
365.241	426.94
365.468	426.94
365.694	425.94
365.92	428.94
366.147	413.94
366.373	405.94
366.599	417.94
366.826	412.94
367.052	415.94
367.278	403.94
367.505	425.94
367.731	417.94
367.957	412.94
368.184	421.94
368.41	412.94
368.636	430.94
368.862	420.94
369.089	442.94
369.315	423.94
369.541	416.94
369.767	412.94
369.993	413.94
370.219	411.94
370.445	414.94
370.672	408.94
370.898	391.94
371.124	397.94
371.35	401.94
371.576	399.94
371.802	406.94
372.028	396.94
372.254	400.94
372.48	399.94
372.706	400.94
372.932	402.94
373.158	423.94
373.384	393.94
373.61	413.94
373.835	417.94
374.061	416.94
374.287	423.94
374.513	411.94
374.739	422.94
374.965	406.94
375.191	433.94
375.416	396.94
375.642	423.94
375.868	393.94
376.094	405.94
376.319	405.94
376.545	436.94
376.771	406.94
376.997	414.94
377.222	418.94
377.448	392.94
377.674	369.94
377.899	389.94
378.125	405.94
378.35	405.94
378.576	406.94
378.802	392.94
379.027	375.94
379.253	393.94
379.478	383.94
379.704	385.94
379.929	392.94
380.155	404.94
380.38	405.94
380.606	426.94
380.831	412.94
381.057	397.94
381.282	383.94
381.507	397.94
381.733	420.94
381.958	399.94
382.184	404.94
382.409	394.94
382.634	413.94
382.86	415.94
383.085	412.94
383.31	416.94
383.535	420.94
383.761	414.94
383.986	395.94
384.211	407.94
384.436	431.94
384.662	431.94
384.887	401.94
385.112	408.94
385.337	433.94
385.562	399.94
385.787	417.94
386.013	433.94
386.238	431.94
386.463	425.94
386.688	401.94
386.913	400.94
387.138	421.94
387.363	430.94
387.588	412.94
387.813	417.94
388.038	403.94
388.263	416.94
388.488	424.94
388.713	412.94
388.938	411.94
389.163	413.94
389.387	442.94
389.612	436.94
389.837	425.94
390.062	416.94
390.287	408.94
390.512	431.94
390.736	402.94
390.961	421.94
391.186	416.94
391.411	431.94
391.636	422.94
391.86	446.94
392.085	415.94
392.31	419.94
392.534	431.94
392.759	439.94
392.984	436.94
393.208	407.94
393.433	425.94
393.658	429.94
393.882	406.94
394.107	409.94
394.331	417.94
394.556	412.94
394.78	439.94
395.005	439.94
395.229	433.94
395.454	437.94
395.678	461.94
395.903	441.94
396.127	469.94
396.352	477.94
396.576	445.94
396.801	445.94
397.025	431.94
397.249	433.94
397.474	444.94
397.698	463.94
397.922	462.94
398.147	455.94
398.371	471.94
398.595	471.94
398.82	461.94
399.044	462.94
399.268	470.94
399.492	519.94
399.717	521.94
399.941	545.94
400.165	587.94
400.389	600.94
400.613	538.94
400.837	522.94
401.062	496.94
401.286	469.94
401.51	480.94
401.734	464.94
401.958	492.94
402.182	477.94
402.406	497.94
402.63	489.94
402.854	487.94
403.078	495.94
403.302	491.94
403.526	501.94
403.75	488.94
403.974	495.94
404.198	494.94
404.422	506.94
404.645	501.94
404.869	523.94
405.093	567.94
405.317	618.94
405.541	643.94
405.765	594.94
405.988	557.94
406.212	535.94
406.436	548.94
406.66	581.94
406.883	564.94
407.107	561.94
407.331	594.94
407.555	651.94
407.778	656.94
408.002	605.94
408.226	595.94
408.449	541.94
408.673	557.94
408.896	590.94
409.12	631.94
409.344	585.94
409.567	515.94
409.791	508.94
410.014	498.94
410.238	514.94
410.461	499.94
410.685	495.94
410.908	500.94
411.132	565.94
411.355	593.94
411.578	586.94
411.802	510.94
412.025	511.94
412.249	520.94
412.472	516.94
412.695	590.94
412.919	584.94
413.142	542.94
413.365	504.94
413.589	501.94
413.812	484.94
414.035	460.94
414.258	488.94
414.482	464.94
414.705	455.94
414.928	475.94
415.151	449.94
415.374	468.94
415.597	467.94
415.821	478.94
416.044	472.94
416.267	464.94
416.49	464.94
416.713	466.94
416.936	462.94
417.159	460.94
417.382	483.94
417.605	476.94
417.828	480.94
418.051	492.94
418.274	507.94
418.497	460.94
418.72	477.94
418.943	470.94
419.166	471.94
419.389	506.94
419.611	523.94
419.834	519.94
420.057	507.94
420.28	491.94
420.503	510.94
420.726	497.94
420.948	524.94
421.171	545.94
421.394	619.94
421.617	531.94
421.839	499.94
422.062	504.94
422.285	519.94
422.507	584.94
422.73	659.94
422.953	626.94
423.175	535.94
423.398	526.94
423.621	522.94
423.843	554.94
424.066	535.94
424.288	543.94
424.511	550.94
424.733	606.94
424.956	683.94
425.178	669.94
425.401	674.94
425.623	679.94
425.846	614.94
426.068	544.94
426.291	551.94
426.513	549.94
426.735	545.94
426.958	592.94
427.18	676.94
427.402	803.94
427.625	909.94
427.847	800.94
428.069	705.94
428.292	619.94
428.514	553.94
428.736	544.94
428.958	515.94
429.181	494.94
429.403	499.94
429.625	516.94
429.847	559.94
430.069	611.94
430.292	625.94
430.514	539.94
430.736	505.94
430.958	481.94
431.18	470.94
431.402	474.94
431.624	468.94
431.846	457.94
432.068	475.94
432.29	456.94
432.512	476.94
432.734	489.94
432.956	471.94
433.178	481.94
433.4	484.94
433.622	475.94
433.844	467.94
434.066	472.94
434.287	462.94
434.509	440.94
434.731	483.94
434.953	468.94
435.175	488.94
435.397	545.94
435.618	539.94
435.84	581.94
436.062	661.94
436.284	733.94
436.505	633.94
436.727	531.94
436.949	519.94
437.17	503.94
437.392	524.94
437.614	509.94
437.835	555.94
438.057	638.94
438.278	782.94
438.5	760.94
438.721	781.94
438.943	777.94
439.165	618.94
439.386	577.94
439.608	542.94
439.829	553.94
440.05	593.94
440.272	642.94
440.493	567.94
440.715	558.94
440.936	522.94
441.158	507.94
441.379	484.94
441.6	492.94
441.822	512.94
442.043	555.94
442.264	672.94
442.486	682.94
442.707	600.94
442.928	569.94
443.149	586.94
443.371	575.94
443.592	641.94
443.813	712.94
444.034	785.94
444.255	641.94
444.476	570.94
444.698	553.94
444.919	519.94
445.14	642.94
445.361	603.94
445.582	586.94
445.803	641.94
446.024	767.94
446.245	772.94
446.466	711.94
446.687	599.94
446.908	537.94
447.129	531.94
447.35	510.94
447.571	503.94
447.792	493.94
448.013	493.94
448.234	515.94
448.455	573.94
448.675	678.94
448.896	825.94
449.117	669.94
449.338	653.94
449.559	741.94
449.779	841.94
450	700.94
450.221	591.94
450.442	508.94
450.662	494.94
450.883	488.94
451.104	524.94
451.324	500.94
451.545	451.94
451.766	460.94
451.986	457.94
452.207	439.94
452.428	455.94
452.648	431.94
452.869	458.94
453.089	459.94
453.31	458.94
453.53	480.94
453.751	453.94
453.971	444.94
454.192	463.94
454.412	450.94
454.633	448.94
454.853	437.94
455.073	470.94
455.294	483.94
455.514	531.94
455.734	506.94
455.955	431.94
456.175	441.94
456.395	413.94
456.616	425.94
456.836	413.94
457.056	412.94
457.276	408.94
457.497	409.94
457.717	413.94
457.937	443.94
458.157	442.94
458.377	448.94
458.598	461.94
458.818	528.94
459.038	602.94
459.258	627.94
459.478	537.94
459.698	486.94
459.918	454.94
460.138	460.94
460.358	456.94
460.578	440.94
460.798	438.94
461.018	461.94
461.238	456.94
461.458	445.94
461.678	447.94
461.898	454.94
462.118	471.94
462.338	450.94
462.558	465.94
462.777	467.94
462.997	471.94
463.217	481.94
463.437	518.94
463.657	462.94
463.876	492.94
464.096	463.94
464.316	487.94
464.536	488.94
464.755	478.94
464.975	490.94
465.195	558.94
465.414	631.94
465.634	544.94
465.854	515.94
466.073	471.94
466.293	459.94
466.512	465.94
466.732	465.94
466.951	471.94
467.171	427.94
467.391	444.94
467.61	473.94
467.829	486.94
468.049	474.94
468.268	486.94
468.488	454.94
468.707	439.94
468.927	449.94
469.146	431.94
469.365	438.94
469.585	445.94
469.804	427.94
470.023	460.94
470.243	454.94
470.462	460.94
470.681	478.94
470.901	475.94
471.12	446.94
471.339	448.94
471.558	448.94
471.777	455.94
471.997	453.94
472.216	458.94
472.435	533.94
472.654	511.94
472.873	475.94
473.092	488.94
473.311	471.94
473.53	466.94
473.749	485.94
473.968	501.94
474.187	637.94
474.406	646.94
474.625	527.94
474.844	481.94
475.063	473.94
475.282	444.94
475.501	432.94
475.72	466.94
475.939	471.94
476.158	455.94
476.377	463.94
476.596	468.94
476.814	477.94
477.033	501.94
477.252	488.94
477.471	479.94
477.69	503.94
477.908	454.94
478.127	490.94
478.346	487.94
478.564	500.94
478.783	489.94
479.002	517.94
479.22	514.94
479.439	527.94
479.658	537.94
479.876	559.94
480.095	551.94
480.313	593.94
480.532	577.94
480.751	568.94
480.969	599.94
481.188	691.94
481.406	760.94
481.624	614.94
481.843	588.94
482.061	565.94
482.28	550.94
482.498	544.94
482.717	513.94
482.935	533.94
483.153	545.94
483.372	538.94
483.59	536.94
483.808	528.94
484.027	543.94
484.245	536.94
484.463	533.94
484.681	554.94
484.9	543.94
485.118	551.94
485.336	543.94
485.554	546.94
485.772	556.94
485.99	532.94
486.209	547.94
486.427	565.94
486.645	593.94
486.863	589.94
487.081	581.94
487.299	564.94
487.517	589.94
487.735	586.94
487.953	576.94
488.171	582.94
488.389	580.94
488.607	583.94
488.825	585.94
489.043	577.94
489.261	588.94
489.479	576.94
489.696	581.94
489.914	568.94
490.132	600.94
490.35	621.94
490.568	629.94
490.786	623.94
491.003	674.94
491.221	643.94
491.439	648.94
491.657	648.94
491.874	662.94
492.092	678.94
492.31	679.94
492.527	676.94
492.745	700.94
492.963	687.94
493.18	664.94
493.398	704.94
493.615	703.94
493.833	702.94
494.05	678.94
494.268	699.94
494.485	691.94
494.703	707.94
494.92	700.94
495.138	725.94
495.355	713.94
495.573	702.94
495.79	686.94
496.008	701.94
496.225	685.94
496.442	691.94
496.66	692.94
496.877	685.94
497.094	692.94
497.312	703.94
497.529	700.94
497.746	715.94
497.963	703.94
498.181	719.94
498.398	727.94
498.615	759.94
498.832	780.94
499.049	775.94
499.267	758.94
499.484	807.94
499.701	819.94
499.918	821.94
500.135	855.94
500.352	868.94
500.569	855.94
500.786	912.94
501.003	885.94
501.22	886.94
501.437	849.94
501.654	810.94
501.871	840.94
