Data from 1989.PennyLincolnUp.Lamp.En5.5.200Scan.071819.P2_HRD10591_17-25-11-973.txt Node
Date: Thu Jul 18 17:25:11 EDT 2019
User: cochatt
Spectrometer: HR+D1059
Trigger mode: 1
Integration Time (sec): 1.000000E-1
Scans to average: 1
Electric dark correction enabled: true
Nonlinearity correction enabled: false
Boxcar width: 0
XAxis mode: Wavelengths
Number of Pixels in Spectrum: 2048
>>>>>Begin Spectral Data<<<<<
223.165	-9.69
223.4	-9.69
223.635	-9.69
223.869	-17.69
224.104	-23.69
224.338	-28.69
224.573	-5.69
224.808	-14.69
225.042	-9.69
225.277	1.31
225.511	10.31
225.746	13.31
225.98	1.31
226.215	1.31
226.449	4.31
226.683	26.31
226.918	28.31
227.152	23.31
227.387	26.31
227.621	38.31
227.856	49.31
228.09	40.31
228.324	51.31
228.559	51.31
228.793	72.31
229.027	104.31
229.262	113.31
229.496	115.31
229.73	146.31
229.964	154.31
230.199	132.31
230.433	123.31
230.667	129.31
230.901	119.31
231.136	103.31
231.37	112.31
231.604	126.31
231.838	113.31
232.072	125.31
232.306	115.31
232.541	108.31
232.775	115.31
233.009	117.31
233.243	111.31
233.477	114.31
233.711	115.31
233.945	126.31
234.179	120.31
234.413	122.31
234.647	121.31
234.881	109.31
235.115	123.31
235.349	129.31
235.583	107.31
235.817	117.31
236.051	129.31
236.285	122.31
236.519	124.31
236.753	127.31
236.987	138.31
237.221	192.31
237.455	244.31
237.689	198.31
237.922	167.31
238.156	144.31
238.39	115.31
238.624	120.31
238.858	137.31
239.091	123.31
239.325	119.31
239.559	132.31
239.793	131.31
240.027	137.31
240.26	147.31
240.494	175.31
240.728	153.31
240.961	165.31
241.195	147.31
241.429	147.31
241.662	136.31
241.896	149.31
242.13	129.31
242.363	136.31
242.597	123.31
242.83	155.31
243.064	131.31
243.298	133.31
243.531	129.31
243.765	133.31
243.998	149.31
244.232	140.31
244.465	150.31
244.699	150.31
244.932	150.31
245.166	147.31
245.399	158.31
245.633	151.31
245.866	134.31
246.099	133.31
246.333	144.31
246.566	150.31
246.8	151.31
247.033	158.31
247.266	167.31
247.5	151.31
247.733	168.31
247.966	173.31
248.2	185.31
248.433	186.31
248.666	173.31
248.899	180.31
249.133	198.31
249.366	227.31
249.599	228.31
249.832	206.31
250.066	196.31
250.299	209.31
250.532	214.31
250.765	208.31
250.998	241.31
251.231	239.31
251.465	215.31
251.698	229.31
251.931	218.31
252.164	216.31
252.397	223.31
252.63	221.31
252.863	216.31
253.096	245.31
253.329	237.31
253.562	260.31
253.795	253.31
254.028	252.31
254.261	242.31
254.494	253.31
254.727	275.31
254.96	303.31
255.193	297.31
255.426	282.31
255.659	269.31
255.892	265.31
256.124	253.31
256.357	254.31
256.59	271.31
256.823	232.31
257.056	240.31
257.289	224.31
257.521	223.31
257.754	245.31
257.987	226.31
258.22	224.31
258.452	221.31
258.685	227.31
258.918	233.31
259.151	218.31
259.383	235.31
259.616	234.31
259.849	258.31
260.081	256.31
260.314	250.31
260.547	267.31
260.779	256.31
261.012	257.31
261.244	241.31
261.477	241.31
261.71	243.31
261.942	261.31
262.175	252.31
262.407	260.31
262.64	234.31
262.872	226.31
263.105	234.31
263.337	206.31
263.57	243.31
263.802	234.31
264.035	239.31
264.267	241.31
264.499	225.31
264.732	231.31
264.964	226.31
265.197	235.31
265.429	250.31
265.661	258.31
265.894	241.31
266.126	232.31
266.358	232.31
266.591	230.31
266.823	255.31
267.055	246.31
267.287	242.31
267.52	243.31
267.752	240.31
267.984	252.31
268.216	255.31
268.448	257.31
268.681	275.31
268.913	255.31
269.145	287.31
269.377	303.31
269.609	288.31
269.841	304.31
270.073	274.31
270.306	331.31
270.538	344.31
270.77	338.31
271.002	331.31
271.234	329.31
271.466	337.31
271.698	336.31
271.93	346.31
272.162	343.31
272.394	331.31
272.626	340.31
272.858	317.31
273.09	327.31
273.322	305.31
273.553	294.31
273.785	289.31
274.017	265.31
274.249	281.31
274.481	281.31
274.713	289.31
274.945	296.31
275.176	295.31
275.408	295.31
275.64	294.31
275.872	276.31
276.104	308.31
276.335	306.31
276.567	296.31
276.799	301.31
277.031	337.31
277.262	338.31
277.494	342.31
277.726	325.31
277.957	307.31
278.189	298.31
278.421	308.31
278.652	297.31
278.884	287.31
279.115	290.31
279.347	289.31
279.579	273.31
279.81	287.31
280.042	293.31
280.273	281.31
280.505	293.31
280.736	283.31
280.968	279.31
281.199	282.31
281.431	270.31
281.662	292.31
281.894	315.31
282.125	282.31
282.356	318.31
282.588	327.31
282.819	330.31
283.051	292.31
283.282	286.31
283.513	291.31
283.745	316.31
283.976	302.31
284.207	311.31
284.439	292.31
284.67	324.31
284.901	293.31
285.132	293.31
285.364	304.31
285.595	288.31
285.826	301.31
286.057	293.31
286.288	302.31
286.52	297.31
286.751	292.31
286.982	314.31
287.213	293.31
287.444	304.31
287.675	302.31
287.906	325.31
288.138	307.31
288.369	326.31
288.6	309.31
288.831	299.31
289.062	299.31
289.293	312.31
289.524	316.31
289.755	296.31
289.986	312.31
290.217	276.31
290.448	298.31
290.679	303.31
290.91	309.31
291.141	303.31
291.371	309.31
291.602	306.31
291.833	304.31
292.064	313.31
292.295	314.31
292.526	297.31
292.757	309.31
292.987	307.31
293.218	302.31
293.449	315.31
293.68	305.31
293.91	315.31
294.141	301.31
294.372	311.31
294.603	292.31
294.833	300.31
295.064	306.31
295.295	298.31
295.525	302.31
295.756	314.31
295.987	310.31
296.217	374.31
296.448	350.31
296.679	337.31
296.909	319.31
297.14	323.31
297.37	322.31
297.601	311.31
297.831	307.31
298.062	325.31
298.292	313.31
298.523	326.31
298.753	322.31
298.984	313.31
299.214	328.31
299.445	338.31
299.675	333.31
299.905	331.31
300.136	316.31
300.366	313.31
300.597	345.31
300.827	342.31
301.057	347.31
301.288	353.31
301.518	354.31
301.748	351.31
301.979	324.31
302.209	353.31
302.439	337.31
302.669	328.31
302.9	355.31
303.13	351.31
303.36	365.31
303.59	359.31
303.82	381.31
304.051	353.31
304.281	352.31
304.511	341.31
304.741	340.31
304.971	341.31
305.201	344.31
305.431	326.31
305.661	358.31
305.891	342.31
306.121	370.31
306.352	347.31
306.582	341.31
306.812	346.31
307.042	363.31
307.272	334.31
307.502	337.31
307.731	351.31
307.961	346.31
308.191	347.31
308.421	359.31
308.651	358.31
308.881	344.31
309.111	358.31
309.341	368.31
309.571	385.31
309.8	377.31
310.03	404.31
310.26	406.31
310.49	388.31
310.72	414.31
310.949	418.31
311.179	430.31
311.409	414.31
311.639	416.31
311.868	409.31
312.098	406.31
312.328	393.31
312.557	429.31
312.787	441.31
313.017	455.31
313.246	439.31
313.476	409.31
313.706	396.31
313.935	425.31
314.165	423.31
314.394	423.31
314.624	441.31
314.853	398.31
315.083	383.31
315.312	399.31
315.542	404.31
315.771	398.31
316.001	395.31
316.23	405.31
316.46	406.31
316.689	409.31
316.919	391.31
317.148	399.31
317.377	427.31
317.607	398.31
317.836	420.31
318.065	393.31
318.295	376.31
318.524	384.31
318.753	395.31
318.983	398.31
319.212	397.31
319.441	414.31
319.67	407.31
319.9	418.31
320.129	416.31
320.358	409.31
320.587	419.31
320.816	426.31
321.046	429.31
321.275	447.31
321.504	432.31
321.733	425.31
321.962	440.31
322.191	455.31
322.42	470.31
322.649	483.31
322.878	484.31
323.108	479.31
323.337	526.31
323.566	564.31
323.795	614.31
324.024	654.31
324.253	791.31
324.482	1123.31
324.71	1754.31
324.939	2511.31
325.168	2209.31
325.397	1149.31
325.626	757.31
325.855	626.31
326.084	589.31
326.313	539.31
326.542	567.31
326.77	629.31
326.999	743.31
327.228	1001.31
327.457	1563.31
327.686	1901.31
327.914	1223.31
328.143	815.31
328.372	683.31
328.6	666.31
328.829	624.31
329.058	621.31
329.287	637.31
329.515	587.31
329.744	561.31
329.972	547.31
330.201	566.31
330.43	607.31
330.658	669.31
330.887	669.31
331.115	673.31
331.344	568.31
331.572	515.31
331.801	544.31
332.03	522.31
332.258	498.31
332.486	483.31
332.715	476.31
332.943	470.31
333.172	494.31
333.4	458.31
333.629	467.31
333.857	502.31
334.085	510.31
334.314	501.31
334.542	505.31
334.771	527.31
334.999	515.31
335.227	484.31
335.455	482.31
335.684	454.31
335.912	459.31
336.14	469.31
336.369	452.31
336.597	445.31
336.825	458.31
337.053	461.31
337.281	449.31
337.51	455.31
337.738	464.31
337.966	474.31
338.194	462.31
338.422	455.31
338.65	461.31
338.878	462.31
339.106	452.31
339.334	443.31
339.562	432.31
339.79	439.31
340.018	457.31
340.246	440.31
340.474	428.31
340.702	442.31
340.93	428.31
341.158	451.31
341.386	427.31
341.614	421.31
341.842	425.31
342.07	436.31
342.298	444.31
342.526	452.31
342.754	434.31
342.981	437.31
343.209	449.31
343.437	454.31
343.665	424.31
343.893	430.31
344.12	429.31
344.348	441.31
344.576	450.31
344.804	453.31
345.031	455.31
345.259	462.31
345.487	457.31
345.714	444.31
345.942	428.31
346.17	418.31
346.397	432.31
346.625	418.31
346.853	416.31
347.08	420.31
347.308	454.31
347.535	450.31
347.763	452.31
347.99	447.31
348.218	437.31
348.445	449.31
348.673	443.31
348.9	438.31
349.128	419.31
349.355	426.31
349.583	411.31
349.81	380.31
350.037	422.31
350.265	417.31
350.492	408.31
350.72	412.31
350.947	416.31
351.174	431.31
351.402	434.31
351.629	437.31
351.856	435.31
352.083	442.31
352.311	455.31
352.538	442.31
352.765	470.31
352.992	442.31
353.22	419.31
353.447	429.31
353.674	440.31
353.901	385.31
354.128	402.31
354.355	406.31
354.583	407.31
354.81	407.31
355.037	403.31
355.264	401.31
355.491	371.31
355.718	377.31
355.945	379.31
356.172	403.31
356.399	393.31
356.626	387.31
356.853	405.31
357.08	373.31
357.307	391.31
357.534	376.31
357.761	383.31
357.988	389.31
358.215	410.31
358.441	372.31
358.668	388.31
358.895	404.31
359.122	392.31
359.349	396.31
359.576	439.31
359.802	443.31
360.029	470.31
360.256	475.31
360.483	463.31
360.709	438.31
360.936	420.31
361.163	426.31
361.39	413.31
361.616	424.31
361.843	422.31
362.07	406.31
362.296	423.31
362.523	425.31
362.749	414.31
362.976	407.31
363.203	438.31
363.429	418.31
363.656	414.31
363.882	396.31
364.109	394.31
364.335	389.31
364.562	402.31
364.788	383.31
365.015	390.31
365.241	394.31
365.468	411.31
365.694	413.31
365.92	406.31
366.147	417.31
366.373	384.31
366.599	379.31
366.826	387.31
367.052	387.31
367.278	401.31
367.505	393.31
367.731	407.31
367.957	407.31
368.184	400.31
368.41	412.31
368.636	408.31
368.862	414.31
369.089	401.31
369.315	406.31
369.541	387.31
369.767	395.31
369.993	390.31
370.219	395.31
370.445	407.31
370.672	379.31
370.898	378.31
371.124	365.31
371.35	402.31
371.576	377.31
371.802	374.31
372.028	389.31
372.254	390.31
372.48	390.31
372.706	384.31
372.932	392.31
373.158	392.31
373.384	393.31
373.61	381.31
373.835	389.31
374.061	375.31
374.287	390.31
374.513	407.31
374.739	395.31
374.965	384.31
375.191	378.31
375.416	395.31
375.642	386.31
375.868	402.31
376.094	385.31
376.319	390.31
376.545	392.31
376.771	382.31
376.997	373.31
377.222	385.31
377.448	382.31
377.674	382.31
377.899	385.31
378.125	377.31
378.35	379.31
378.576	379.31
378.802	372.31
379.027	372.31
379.253	382.31
379.478	389.31
379.704	385.31
379.929	390.31
380.155	378.31
380.38	375.31
380.606	388.31
380.831	369.31
381.057	381.31
381.282	378.31
381.507	396.31
381.733	397.31
381.958	373.31
382.184	381.31
382.409	396.31
382.634	415.31
382.86	387.31
383.085	401.31
383.31	399.31
383.535	379.31
383.761	379.31
383.986	416.31
384.211	400.31
384.436	394.31
384.662	374.31
384.887	403.31
385.112	395.31
385.337	395.31
385.562	394.31
385.787	412.31
386.013	425.31
386.238	420.31
386.463	414.31
386.688	388.31
386.913	384.31
387.138	424.31
387.363	395.31
387.588	398.31
387.813	403.31
388.038	424.31
388.263	380.31
388.488	413.31
388.713	412.31
388.938	420.31
389.163	415.31
389.387	401.31
389.612	399.31
389.837	409.31
390.062	406.31
390.287	395.31
390.512	400.31
390.736	395.31
390.961	400.31
391.186	415.31
391.411	408.31
391.636	406.31
391.86	422.31
392.085	433.31
392.31	426.31
392.534	414.31
392.759	410.31
392.984	391.31
393.208	433.31
393.433	419.31
393.658	399.31
393.882	382.31
394.107	396.31
394.331	387.31
394.556	386.31
394.78	408.31
395.005	412.31
395.229	415.31
395.454	429.31
395.678	396.31
395.903	415.31
396.127	447.31
396.352	459.31
396.576	420.31
396.801	410.31
397.025	433.31
397.249	407.31
397.474	415.31
397.698	455.31
397.922	449.31
398.147	459.31
398.371	462.31
398.595	453.31
398.82	440.31
399.044	452.31
399.268	454.31
399.492	478.31
399.717	519.31
399.941	524.31
400.165	574.31
400.389	584.31
400.613	506.31
400.837	493.31
401.062	473.31
401.286	479.31
401.51	457.31
401.734	462.31
401.958	476.31
402.182	470.31
402.406	471.31
402.63	453.31
402.854	463.31
403.078	435.31
403.302	474.31
403.526	465.31
403.75	469.31
403.974	460.31
404.198	458.31
404.422	461.31
404.645	480.31
404.869	480.31
405.093	496.31
405.317	560.31
405.541	583.31
405.765	532.31
405.988	503.31
406.212	524.31
406.436	528.31
406.66	538.31
406.883	529.31
407.107	527.31
407.331	596.31
407.555	655.31
407.778	648.31
408.002	592.31
408.226	516.31
408.449	536.31
408.673	519.31
408.896	557.31
409.12	599.31
409.344	583.31
409.567	501.31
409.791	486.31
410.014	484.31
410.238	466.31
410.461	490.31
410.685	487.31
410.908	509.31
411.132	554.31
411.355	569.31
411.578	569.31
411.802	518.31
412.025	485.31
412.249	449.31
412.472	488.31
412.695	541.31
412.919	535.31
413.142	465.31
413.365	466.31
413.589	457.31
413.812	447.31
414.035	454.31
414.258	443.31
414.482	418.31
414.705	455.31
414.928	435.31
415.151	426.31
415.374	423.31
415.597	441.31
415.821	429.31
416.044	438.31
416.267	460.31
416.49	449.31
416.713	445.31
416.936	422.31
417.159	435.31
417.382	437.31
417.605	466.31
417.828	459.31
418.051	468.31
418.274	471.31
418.497	446.31
418.72	444.31
418.943	439.31
419.166	468.31
419.389	472.31
419.611	471.31
419.834	490.31
420.057	476.31
420.28	468.31
420.503	498.31
420.726	457.31
420.948	488.31
421.171	510.31
421.394	557.31
421.617	516.31
421.839	454.31
422.062	462.31
422.285	477.31
422.507	538.31
422.73	628.31
422.953	609.31
423.175	507.31
423.398	513.31
423.621	485.31
423.843	495.31
424.066	525.31
424.288	523.31
424.511	545.31
424.733	585.31
424.956	662.31
425.178	651.31
425.401	655.31
425.623	673.31
425.846	570.31
426.068	535.31
426.291	517.31
426.513	495.31
426.735	527.31
426.958	580.31
427.18	653.31
427.402	773.31
427.625	848.31
427.847	749.31
428.069	641.31
428.292	587.31
428.514	531.31
428.736	512.31
428.958	495.31
429.181	481.31
429.403	470.31
429.625	483.31
429.847	522.31
430.069	550.31
430.292	607.31
430.514	514.31
430.736	491.31
430.958	486.31
431.18	458.31
431.402	462.31
431.624	433.31
431.846	450.31
432.068	426.31
432.29	427.31
432.512	442.31
432.734	443.31
432.956	453.31
433.178	449.31
433.4	454.31
433.622	467.31
433.844	452.31
434.066	450.31
434.287	435.31
434.509	430.31
434.731	467.31
434.953	472.31
435.175	479.31
435.397	510.31
435.618	527.31
435.84	535.31
436.062	678.31
436.284	720.31
436.505	595.31
436.727	537.31
436.949	501.31
437.17	476.31
437.392	476.31
437.614	490.31
437.835	537.31
438.057	644.31
438.278	726.31
438.5	722.31
438.721	775.31
438.943	757.31
439.165	603.31
439.386	539.31
439.608	550.31
439.829	523.31
440.05	564.31
440.272	593.31
440.493	578.31
440.715	522.31
440.936	509.31
441.158	466.31
441.379	488.31
441.6	509.31
441.822	511.31
442.043	579.31
442.264	657.31
442.486	693.31
442.707	576.31
442.928	559.31
443.149	517.31
443.371	569.31
443.592	617.31
443.813	707.31
444.034	762.31
444.255	643.31
444.476	543.31
444.698	517.31
444.919	505.31
445.14	622.31
445.361	595.31
445.582	536.31
445.803	629.31
446.024	738.31
446.245	763.31
446.466	689.31
446.687	593.31
446.908	549.31
447.129	492.31
447.35	491.31
447.571	469.31
447.792	483.31
448.013	483.31
448.234	497.31
448.455	565.31
448.675	668.31
448.896	789.31
449.117	655.31
449.338	631.31
449.559	764.31
449.779	824.31
450	661.31
450.221	546.31
450.442	498.31
450.662	502.31
450.883	494.31
451.104	535.31
451.324	505.31
451.545	467.31
451.766	451.31
451.986	439.31
452.207	409.31
452.428	421.31
452.648	438.31
452.869	438.31
453.089	454.31
453.31	447.31
453.53	418.31
453.751	435.31
453.971	437.31
454.192	462.31
454.412	448.31
454.633	432.31
454.853	423.31
455.073	439.31
455.294	451.31
455.514	544.31
455.734	499.31
455.955	438.31
456.175	415.31
456.395	382.31
456.616	397.31
456.836	381.31
457.056	398.31
457.276	394.31
457.497	413.31
457.717	400.31
457.937	405.31
458.157	409.31
458.377	419.31
458.598	449.31
458.818	473.31
459.038	579.31
459.258	587.31
459.478	497.31
459.698	445.31
459.918	445.31
460.138	436.31
460.358	440.31
460.578	422.31
460.798	421.31
461.018	433.31
461.238	442.31
461.458	432.31
461.678	441.31
461.898	440.31
462.118	441.31
462.338	429.31
462.558	455.31
462.777	467.31
462.997	467.31
463.217	469.31
463.437	455.31
463.657	469.31
463.876	465.31
464.096	462.31
464.316	482.31
464.536	465.31
464.755	477.31
464.975	462.31
465.195	522.31
465.414	610.31
465.634	537.31
465.854	477.31
466.073	469.31
466.293	446.31
466.512	427.31
466.732	425.31
466.951	433.31
467.171	435.31
467.391	437.31
467.61	446.31
467.829	441.31
468.049	443.31
468.268	436.31
468.488	426.31
468.707	400.31
468.927	372.31
469.146	414.31
469.365	417.31
469.585	409.31
469.804	433.31
470.023	449.31
470.243	445.31
470.462	447.31
470.681	469.31
470.901	453.31
471.12	431.31
471.339	430.31
471.558	433.31
471.777	442.31
471.997	443.31
472.216	433.31
472.435	463.31
472.654	455.31
472.873	417.31
473.092	427.31
473.311	423.31
473.53	453.31
473.749	452.31
473.968	481.31
474.187	588.31
474.406	618.31
474.625	519.31
474.844	450.31
475.063	451.31
475.282	429.31
475.501	441.31
475.72	452.31
475.939	449.31
476.158	437.31
476.377	474.31
476.596	456.31
476.814	456.31
477.033	466.31
477.252	468.31
477.471	446.31
477.69	486.31
477.908	467.31
478.127	499.31
478.346	476.31
478.564	508.31
478.783	476.31
479.002	494.31
479.22	485.31
479.439	509.31
479.658	523.31
479.876	529.31
480.095	536.31
480.313	555.31
480.532	538.31
480.751	542.31
480.969	538.31
481.188	560.31
481.406	627.31
481.624	551.31
481.843	537.31
482.061	536.31
482.28	512.31
482.498	514.31
482.717	513.31
482.935	511.31
483.153	518.31
483.372	519.31
483.59	505.31
483.808	498.31
484.027	509.31
484.245	507.31
484.463	494.31
484.681	523.31
484.9	533.31
485.118	538.31
485.336	522.31
485.554	531.31
485.772	526.31
485.99	523.31
486.209	521.31
486.427	539.31
486.645	558.31
486.863	574.31
487.081	559.31
487.299	553.31
487.517	559.31
487.735	546.31
487.953	551.31
488.171	551.31
488.389	562.31
488.607	554.31
488.825	549.31
489.043	572.31
489.261	547.31
489.479	547.31
489.696	560.31
489.914	550.31
490.132	570.31
490.35	552.31
490.568	598.31
490.786	611.31
491.003	602.31
491.221	633.31
491.439	627.31
491.657	637.31
491.874	653.31
492.092	646.31
492.31	645.31
492.527	631.31
492.745	656.31
492.963	661.31
493.18	647.31
493.398	680.31
493.615	656.31
493.833	662.31
494.05	643.31
494.268	687.31
494.485	654.31
494.703	649.31
494.92	661.31
495.138	664.31
495.355	658.31
495.573	648.31
495.79	656.31
496.008	657.31
496.225	663.31
496.442	681.31
496.66	642.31
496.877	645.31
497.094	671.31
497.312	656.31
497.529	655.31
497.746	683.31
497.963	696.31
498.181	715.31
498.398	706.31
498.615	714.31
498.832	727.31
499.049	722.31
499.267	743.31
499.484	741.31
499.701	785.31
499.918	801.31
500.135	817.31
500.352	818.31
500.569	837.31
500.786	846.31
501.003	866.31
501.22	820.31
501.437	828.31
501.654	820.31
501.871	828.31
