Data from 1989.PennyLincolnUp.Lamp.En5.5.200Scan.071819.P2_HRD10591_17-26-27-974.txt Node
Date: Thu Jul 18 17:26:27 EDT 2019
User: cochatt
Spectrometer: HR+D1059
Trigger mode: 1
Integration Time (sec): 1.000000E-1
Scans to average: 1
Electric dark correction enabled: true
Nonlinearity correction enabled: false
Boxcar width: 0
XAxis mode: Wavelengths
Number of Pixels in Spectrum: 2048
>>>>>Begin Spectral Data<<<<<
223.165	-20.19
223.4	-20.19
223.635	-20.19
223.869	-22.19
224.104	-12.19
224.338	-31.19
224.573	-12.19
224.808	-14.19
225.042	-16.19
225.277	5.81
225.511	9.81
225.746	-3.19
225.98	0.81
226.215	16.81
226.449	17.81
226.683	24.81
226.918	20.81
227.152	34.81
227.387	38.81
227.621	52.81
227.856	57.81
228.09	51.81
228.324	51.81
228.559	56.81
228.793	58.81
229.027	102.81
229.262	112.81
229.496	123.81
229.73	130.81
229.964	147.81
230.199	139.81
230.433	109.81
230.667	113.81
230.901	122.81
231.136	125.81
231.37	125.81
231.604	111.81
231.838	112.81
232.072	105.81
232.306	127.81
232.541	108.81
232.775	120.81
233.009	113.81
233.243	111.81
233.477	119.81
233.711	120.81
233.945	122.81
234.179	125.81
234.413	119.81
234.647	129.81
234.881	108.81
235.115	113.81
235.349	119.81
235.583	131.81
235.817	118.81
236.051	128.81
236.285	129.81
236.519	140.81
236.753	144.81
236.987	153.81
237.221	182.81
237.455	241.81
237.689	211.81
237.922	138.81
238.156	129.81
238.39	142.81
238.624	138.81
238.858	124.81
239.091	137.81
239.325	129.81
239.559	132.81
239.793	123.81
240.027	129.81
240.26	159.81
240.494	175.81
240.728	169.81
240.961	161.81
241.195	150.81
241.429	134.81
241.662	140.81
241.896	133.81
242.13	133.81
242.363	139.81
242.597	138.81
242.83	156.81
243.064	139.81
243.298	135.81
243.531	142.81
243.765	163.81
243.998	160.81
244.232	145.81
244.465	168.81
244.699	150.81
244.932	148.81
245.166	156.81
245.399	163.81
245.633	151.81
245.866	177.81
246.099	153.81
246.333	159.81
246.566	170.81
246.8	149.81
247.033	155.81
247.266	164.81
247.5	181.81
247.733	184.81
247.966	199.81
248.2	191.81
248.433	179.81
248.666	194.81
248.899	209.81
249.133	211.81
249.366	232.81
249.599	220.81
249.832	197.81
250.066	210.81
250.299	202.81
250.532	200.81
250.765	251.81
250.998	265.81
251.231	259.81
251.465	240.81
251.698	235.81
251.931	221.81
252.164	208.81
252.397	218.81
252.63	203.81
252.863	231.81
253.096	249.81
253.329	236.81
253.562	270.81
253.795	247.81
254.028	240.81
254.261	247.81
254.494	241.81
254.727	282.81
254.96	305.81
255.193	311.81
255.426	283.81
255.659	260.81
255.892	271.81
256.124	302.81
256.357	301.81
256.59	303.81
256.823	265.81
257.056	266.81
257.289	258.81
257.521	234.81
257.754	237.81
257.987	225.81
258.22	216.81
258.452	231.81
258.685	234.81
258.918	221.81
259.151	229.81
259.383	251.81
259.616	257.81
259.849	256.81
260.081	273.81
260.314	276.81
260.547	281.81
260.779	284.81
261.012	275.81
261.244	275.81
261.477	263.81
261.71	232.81
261.942	259.81
262.175	280.81
262.407	285.81
262.64	239.81
262.872	227.81
263.105	215.81
263.337	255.81
263.57	231.81
263.802	239.81
264.035	241.81
264.267	245.81
264.499	223.81
264.732	242.81
264.964	230.81
265.197	241.81
265.429	217.81
265.661	246.81
265.894	234.81
266.126	240.81
266.358	228.81
266.591	256.81
266.823	236.81
267.055	239.81
267.287	253.81
267.52	246.81
267.752	248.81
267.984	243.81
268.216	267.81
268.448	256.81
268.681	260.81
268.913	279.81
269.145	296.81
269.377	306.81
269.609	315.81
269.841	296.81
270.073	305.81
270.306	314.81
270.538	354.81
270.77	350.81
271.002	344.81
271.234	320.81
271.466	332.81
271.698	354.81
271.93	337.81
272.162	357.81
272.394	353.81
272.626	349.81
272.858	321.81
273.09	337.81
273.322	320.81
273.553	279.81
273.785	295.81
274.017	277.81
274.249	295.81
274.481	279.81
274.713	296.81
274.945	307.81
275.176	315.81
275.408	295.81
275.64	298.81
275.872	292.81
276.104	285.81
276.335	286.81
276.567	299.81
276.799	299.81
277.031	329.81
277.262	359.81
277.494	359.81
277.726	343.81
277.957	329.81
278.189	322.81
278.421	307.81
278.652	300.81
278.884	284.81
279.115	297.81
279.347	290.81
279.579	314.81
279.81	286.81
280.042	298.81
280.273	303.81
280.505	294.81
280.736	287.81
280.968	299.81
281.199	314.81
281.431	289.81
281.662	317.81
281.894	300.81
282.125	312.81
282.356	313.81
282.588	349.81
282.819	341.81
283.051	329.81
283.282	284.81
283.513	300.81
283.745	290.81
283.976	304.81
284.207	321.81
284.439	300.81
284.67	309.81
284.901	288.81
285.132	312.81
285.364	305.81
285.595	307.81
285.826	307.81
286.057	303.81
286.288	288.81
286.52	317.81
286.751	307.81
286.982	298.81
287.213	311.81
287.444	335.81
287.675	322.81
287.906	315.81
288.138	324.81
288.369	325.81
288.6	319.81
288.831	323.81
289.062	325.81
289.293	324.81
289.524	312.81
289.755	316.81
289.986	323.81
290.217	322.81
290.448	317.81
290.679	294.81
290.91	303.81
291.141	297.81
291.371	321.81
291.602	327.81
291.833	323.81
292.064	317.81
292.295	315.81
292.526	313.81
292.757	307.81
292.987	317.81
293.218	317.81
293.449	319.81
293.68	328.81
293.91	307.81
294.141	299.81
294.372	318.81
294.603	301.81
294.833	315.81
295.064	319.81
295.295	312.81
295.525	307.81
295.756	319.81
295.987	334.81
296.217	343.81
296.448	345.81
296.679	336.81
296.909	305.81
297.14	336.81
297.37	309.81
297.601	314.81
297.831	335.81
298.062	329.81
298.292	324.81
298.523	329.81
298.753	316.81
298.984	314.81
299.214	337.81
299.445	326.81
299.675	318.81
299.905	327.81
300.136	328.81
300.366	311.81
300.597	341.81
300.827	343.81
301.057	344.81
301.288	354.81
301.518	366.81
301.748	337.81
301.979	353.81
302.209	369.81
302.439	357.81
302.669	355.81
302.9	352.81
303.13	347.81
303.36	342.81
303.59	355.81
303.82	372.81
304.051	377.81
304.281	357.81
304.511	357.81
304.741	368.81
304.971	362.81
305.201	352.81
305.431	359.81
305.661	364.81
305.891	363.81
306.121	363.81
306.352	360.81
306.582	362.81
306.812	356.81
307.042	349.81
307.272	374.81
307.502	361.81
307.731	367.81
307.961	355.81
308.191	362.81
308.421	358.81
308.651	363.81
308.881	376.81
309.111	367.81
309.341	363.81
309.571	375.81
309.8	392.81
310.03	395.81
310.26	415.81
310.49	399.81
310.72	422.81
310.949	420.81
311.179	426.81
311.409	431.81
311.639	437.81
311.868	412.81
312.098	407.81
312.328	419.81
312.557	439.81
312.787	435.81
313.017	433.81
313.246	418.81
313.476	403.81
313.706	415.81
313.935	431.81
314.165	436.81
314.394	434.81
314.624	426.81
314.853	437.81
315.083	412.81
315.312	401.81
315.542	408.81
315.771	404.81
316.001	418.81
316.23	401.81
316.46	408.81
316.689	422.81
316.919	399.81
317.148	417.81
317.377	433.81
317.607	419.81
317.836	426.81
318.065	412.81
318.295	412.81
318.524	436.81
318.753	405.81
318.983	405.81
319.212	398.81
319.441	403.81
319.67	412.81
319.9	425.81
320.129	412.81
320.358	436.81
320.587	412.81
320.816	446.81
321.046	444.81
321.275	437.81
321.504	443.81
321.733	443.81
321.962	427.81
322.191	474.81
322.42	475.81
322.649	484.81
322.878	488.81
323.108	503.81
323.337	547.81
323.566	583.81
323.795	616.81
324.024	658.81
324.253	817.81
324.482	1160.81
324.71	1791.81
324.939	2520.81
325.168	2186.81
325.397	1158.81
325.626	779.81
325.855	618.81
326.084	587.81
326.313	581.81
326.542	568.81
326.77	635.81
326.999	742.81
327.228	1047.81
327.457	1586.81
327.686	1917.81
327.914	1305.81
328.143	847.81
328.372	736.81
328.6	702.81
328.829	663.81
329.058	696.81
329.287	688.81
329.515	632.81
329.744	615.81
329.972	631.81
330.201	652.81
330.43	713.81
330.658	732.81
330.887	715.81
331.115	682.81
331.344	603.81
331.572	556.81
331.801	549.81
332.03	524.81
332.258	541.81
332.486	514.81
332.715	517.81
332.943	496.81
333.172	497.81
333.4	507.81
333.629	530.81
333.857	570.81
334.085	600.81
334.314	633.81
334.542	668.81
334.771	711.81
334.999	625.81
335.227	556.81
335.455	512.81
335.684	516.81
335.912	497.81
336.14	479.81
336.369	473.81
336.597	488.81
336.825	483.81
337.053	489.81
337.281	467.81
337.51	471.81
337.738	465.81
337.966	490.81
338.194	485.81
338.422	470.81
338.65	467.81
338.878	478.81
339.106	469.81
339.334	460.81
339.562	442.81
339.79	464.81
340.018	457.81
340.246	456.81
340.474	486.81
340.702	464.81
340.93	469.81
341.158	457.81
341.386	453.81
341.614	488.81
341.842	469.81
342.07	443.81
342.298	440.81
342.526	447.81
342.754	417.81
342.981	433.81
343.209	424.81
343.437	427.81
343.665	428.81
343.893	434.81
344.12	448.81
344.348	466.81
344.576	456.81
344.804	449.81
345.031	468.81
345.259	465.81
345.487	471.81
345.714	486.81
345.942	448.81
346.17	427.81
346.397	444.81
346.625	454.81
346.853	440.81
347.08	431.81
347.308	463.81
347.535	462.81
347.763	458.81
347.99	458.81
348.218	453.81
348.445	453.81
348.673	479.81
348.9	444.81
349.128	442.81
349.355	443.81
349.583	414.81
349.81	431.81
350.037	442.81
350.265	419.81
350.492	418.81
350.72	440.81
350.947	436.81
351.174	447.81
351.402	468.81
351.629	460.81
351.856	444.81
352.083	450.81
352.311	457.81
352.538	449.81
352.765	473.81
352.992	441.81
353.22	451.81
353.447	420.81
353.674	418.81
353.901	413.81
354.128	420.81
354.355	391.81
354.583	402.81
354.81	403.81
355.037	417.81
355.264	377.81
355.491	400.81
355.718	392.81
355.945	390.81
356.172	404.81
356.399	383.81
356.626	411.81
356.853	407.81
357.08	401.81
357.307	423.81
357.534	406.81
357.761	383.81
357.988	392.81
358.215	391.81
358.441	389.81
358.668	379.81
358.895	415.81
359.122	396.81
359.349	413.81
359.576	450.81
359.802	435.81
360.029	478.81
360.256	488.81
360.483	458.81
360.709	437.81
360.936	441.81
361.163	427.81
361.39	452.81
361.616	437.81
361.843	429.81
362.07	422.81
362.296	438.81
362.523	437.81
362.749	441.81
362.976	410.81
363.203	411.81
363.429	414.81
363.656	416.81
363.882	423.81
364.109	403.81
364.335	391.81
364.562	419.81
364.788	409.81
365.015	417.81
365.241	408.81
365.468	417.81
365.694	415.81
365.92	400.81
366.147	386.81
366.373	389.81
366.599	403.81
366.826	379.81
367.052	391.81
367.278	405.81
367.505	405.81
367.731	416.81
367.957	403.81
368.184	401.81
368.41	423.81
368.636	421.81
368.862	415.81
369.089	422.81
369.315	396.81
369.541	392.81
369.767	389.81
369.993	402.81
370.219	393.81
370.445	414.81
370.672	401.81
370.898	410.81
371.124	418.81
371.35	391.81
371.576	396.81
371.802	404.81
372.028	390.81
372.254	378.81
372.48	393.81
372.706	377.81
372.932	376.81
373.158	382.81
373.384	398.81
373.61	387.81
373.835	405.81
374.061	377.81
374.287	389.81
374.513	410.81
374.739	408.81
374.965	390.81
375.191	410.81
375.416	406.81
375.642	396.81
375.868	398.81
376.094	389.81
376.319	402.81
376.545	391.81
376.771	400.81
376.997	387.81
377.222	391.81
377.448	388.81
377.674	397.81
377.899	377.81
378.125	385.81
378.35	381.81
378.576	387.81
378.802	391.81
379.027	391.81
379.253	385.81
379.478	379.81
379.704	385.81
379.929	394.81
380.155	393.81
380.38	382.81
380.606	394.81
380.831	379.81
381.057	386.81
381.282	397.81
381.507	412.81
381.733	392.81
381.958	391.81
382.184	395.81
382.409	393.81
382.634	408.81
382.86	390.81
383.085	387.81
383.31	400.81
383.535	399.81
383.761	407.81
383.986	416.81
384.211	401.81
384.436	402.81
384.662	426.81
384.887	420.81
385.112	353.81
385.337	413.81
385.562	405.81
385.787	407.81
386.013	421.81
386.238	409.81
386.463	423.81
386.688	427.81
386.913	424.81
387.138	397.81
387.363	431.81
387.588	419.81
387.813	408.81
388.038	413.81
388.263	403.81
388.488	419.81
388.713	413.81
388.938	416.81
389.163	426.81
389.387	412.81
389.612	416.81
389.837	390.81
390.062	409.81
390.287	420.81
390.512	414.81
390.736	400.81
390.961	422.81
391.186	423.81
391.411	407.81
391.636	414.81
391.86	390.81
392.085	417.81
392.31	421.81
392.534	432.81
392.759	414.81
392.984	425.81
393.208	441.81
393.433	409.81
393.658	408.81
393.882	379.81
394.107	393.81
394.331	419.81
394.556	417.81
394.78	417.81
395.005	432.81
395.229	394.81
395.454	410.81
395.678	427.81
395.903	421.81
396.127	458.81
396.352	468.81
396.576	418.81
396.801	417.81
397.025	425.81
397.249	408.81
397.474	433.81
397.698	436.81
397.922	476.81
398.147	475.81
398.371	475.81
398.595	448.81
398.82	474.81
399.044	474.81
399.268	490.81
399.492	501.81
399.717	529.81
399.941	545.81
400.165	552.81
400.389	584.81
400.613	527.81
400.837	510.81
401.062	487.81
401.286	472.81
401.51	459.81
401.734	458.81
401.958	461.81
402.182	469.81
402.406	472.81
402.63	490.81
402.854	464.81
403.078	469.81
403.302	480.81
403.526	479.81
403.75	486.81
403.974	470.81
404.198	498.81
404.422	495.81
404.645	502.81
404.869	515.81
405.093	546.81
405.317	588.81
405.541	647.81
405.765	578.81
405.988	538.81
406.212	531.81
406.436	552.81
406.66	564.81
406.883	537.81
407.107	555.81
407.331	602.81
407.555	631.81
407.778	659.81
408.002	601.81
408.226	549.81
408.449	524.81
408.673	526.81
408.896	576.81
409.12	604.81
409.344	583.81
409.567	518.81
409.791	505.81
410.014	488.81
410.238	479.81
410.461	495.81
410.685	487.81
410.908	492.81
411.132	545.81
411.355	565.81
411.578	539.81
411.802	516.81
412.025	488.81
412.249	497.81
412.472	533.81
412.695	572.81
412.919	597.81
413.142	547.81
413.365	517.81
413.589	503.81
413.812	479.81
414.035	479.81
414.258	461.81
414.482	481.81
414.705	457.81
414.928	466.81
415.151	460.81
415.374	458.81
415.597	422.81
415.821	462.81
416.044	458.81
416.267	475.81
416.49	445.81
416.713	455.81
416.936	446.81
417.159	458.81
417.382	458.81
417.605	473.81
417.828	477.81
418.051	487.81
418.274	473.81
418.497	472.81
418.72	475.81
418.943	454.81
419.166	484.81
419.389	500.81
419.611	487.81
419.834	486.81
420.057	485.81
420.28	506.81
420.503	499.81
420.726	489.81
420.948	516.81
421.171	529.81
421.394	561.81
421.617	530.81
421.839	488.81
422.062	468.81
422.285	500.81
422.507	564.81
422.73	640.81
422.953	603.81
423.175	525.81
423.398	526.81
423.621	501.81
423.843	523.81
424.066	527.81
424.288	528.81
424.511	531.81
424.733	583.81
424.956	670.81
425.178	643.81
425.401	663.81
425.623	660.81
425.846	575.81
426.068	527.81
426.291	523.81
426.513	520.81
426.735	529.81
426.958	575.81
427.18	673.81
427.402	761.81
427.625	860.81
427.847	778.81
428.069	689.81
428.292	605.81
428.514	539.81
428.736	495.81
428.958	504.81
429.181	480.81
429.403	495.81
429.625	469.81
429.847	538.81
430.069	591.81
430.292	586.81
430.514	513.81
430.736	508.81
430.958	479.81
431.18	456.81
431.402	465.81
431.624	449.81
431.846	455.81
432.068	431.81
432.29	456.81
432.512	456.81
432.734	439.81
432.956	458.81
433.178	472.81
433.4	475.81
433.622	460.81
433.844	435.81
434.066	433.81
434.287	425.81
434.509	468.81
434.731	455.81
434.953	461.81
435.175	479.81
435.397	528.81
435.618	533.81
435.84	561.81
436.062	669.81
436.284	749.81
436.505	635.81
436.727	549.81
436.949	482.81
437.17	473.81
437.392	474.81
437.614	493.81
437.835	534.81
438.057	637.81
438.278	754.81
438.5	754.81
438.721	797.81
438.943	743.81
439.165	595.81
439.386	569.81
439.608	529.81
439.829	546.81
440.05	593.81
440.272	624.81
440.493	594.81
440.715	535.81
440.936	499.81
441.158	485.81
441.379	465.81
441.6	516.81
441.822	514.81
442.043	566.81
442.264	639.81
442.486	689.81
442.707	599.81
442.928	575.81
443.149	560.81
443.371	565.81
443.592	600.81
443.813	680.81
444.034	746.81
444.255	627.81
444.476	538.81
444.698	531.81
444.919	538.81
445.14	652.81
445.361	617.81
445.582	598.81
445.803	646.81
446.024	714.81
446.245	749.81
446.466	688.81
446.687	580.81
446.908	543.81
447.129	506.81
447.35	519.81
447.571	496.81
447.792	495.81
448.013	488.81
448.234	524.81
448.455	547.81
448.675	673.81
448.896	788.81
449.117	687.81
449.338	635.81
449.559	738.81
449.779	828.81
450	657.81
450.221	552.81
450.442	488.81
450.662	485.81
450.883	492.81
451.104	517.81
451.324	507.81
451.545	451.81
451.766	456.81
451.986	445.81
452.207	410.81
452.428	450.81
452.648	441.81
452.869	448.81
453.089	449.81
453.31	453.81
453.53	434.81
453.751	425.81
453.971	448.81
454.192	445.81
454.412	445.81
454.633	428.81
454.853	420.81
455.073	425.81
455.294	472.81
455.514	541.81
455.734	530.81
455.955	421.81
456.175	425.81
456.395	405.81
456.616	424.81
456.836	384.81
457.056	389.81
457.276	402.81
457.497	389.81
457.717	404.81
457.937	381.81
458.157	410.81
458.377	415.81
458.598	462.81
458.818	511.81
459.038	606.81
459.258	602.81
459.478	492.81
459.698	472.81
459.918	458.81
460.138	465.81
460.358	452.81
460.578	481.81
460.798	455.81
461.018	456.81
461.238	456.81
461.458	433.81
461.678	429.81
461.898	443.81
462.118	458.81
462.338	460.81
462.558	464.81
462.777	468.81
462.997	450.81
463.217	446.81
463.437	473.81
463.657	460.81
463.876	476.81
464.096	452.81
464.316	448.81
464.536	461.81
464.755	483.81
464.975	502.81
465.195	551.81
465.414	595.81
465.634	522.81
465.854	487.81
466.073	471.81
466.293	447.81
466.512	437.81
466.732	417.81
466.951	433.81
467.171	421.81
467.391	441.81
467.61	468.81
467.829	460.81
468.049	449.81
468.268	462.81
468.488	466.81
468.707	448.81
468.927	452.81
469.146	429.81
469.365	433.81
469.585	428.81
469.804	441.81
470.023	451.81
470.243	454.81
470.462	454.81
470.681	461.81
470.901	450.81
471.12	456.81
471.339	420.81
471.558	472.81
471.777	452.81
471.997	458.81
472.216	462.81
472.435	520.81
472.654	525.81
472.873	478.81
473.092	460.81
473.311	462.81
473.53	476.81
473.749	469.81
473.968	521.81
474.187	635.81
474.406	622.81
474.625	521.81
474.844	484.81
475.063	471.81
475.282	465.81
475.501	451.81
475.72	460.81
475.939	470.81
476.158	459.81
476.377	463.81
476.596	450.81
476.814	451.81
477.033	476.81
477.252	486.81
477.471	480.81
477.69	465.81
477.908	479.81
478.127	495.81
478.346	490.81
478.564	503.81
478.783	487.81
479.002	513.81
479.22	515.81
479.439	520.81
479.658	521.81
479.876	531.81
480.095	553.81
480.313	579.81
480.532	563.81
480.751	570.81
480.969	570.81
481.188	698.81
481.406	784.81
481.624	673.81
481.843	605.81
482.061	587.81
482.28	533.81
482.498	561.81
482.717	523.81
482.935	549.81
483.153	535.81
483.372	517.81
483.59	513.81
483.808	516.81
484.027	515.81
484.245	525.81
484.463	533.81
484.681	532.81
484.9	533.81
485.118	533.81
485.336	553.81
485.554	544.81
485.772	540.81
485.99	551.81
486.209	542.81
486.427	561.81
486.645	571.81
486.863	578.81
487.081	590.81
487.299	579.81
487.517	576.81
487.735	573.81
487.953	568.81
488.171	559.81
488.389	549.81
488.607	569.81
488.825	569.81
489.043	579.81
489.261	571.81
489.479	568.81
489.696	577.81
489.914	592.81
490.132	603.81
490.35	580.81
490.568	600.81
490.786	600.81
491.003	617.81
491.221	624.81
491.439	641.81
491.657	666.81
491.874	664.81
492.092	683.81
492.31	676.81
492.527	651.81
492.745	666.81
492.963	677.81
493.18	714.81
493.398	697.81
493.615	691.81
493.833	697.81
494.05	666.81
494.268	685.81
494.485	674.81
494.703	702.81
494.92	669.81
495.138	701.81
495.355	665.81
495.573	673.81
495.79	698.81
496.008	703.81
496.225	666.81
496.442	678.81
496.66	671.81
496.877	662.81
497.094	700.81
497.312	693.81
497.529	676.81
497.746	696.81
497.963	701.81
498.181	720.81
498.398	729.81
498.615	742.81
498.832	754.81
499.049	748.81
499.267	759.81
499.484	759.81
499.701	770.81
499.918	800.81
500.135	825.81
500.352	852.81
500.569	909.81
500.786	870.81
501.003	881.81
501.22	847.81
501.437	828.81
501.654	819.81
501.871	828.81
