Data from 1989.PennyLincolnUp.Lamp.En5.5.200Scan.071819.P2_HRD10591_17-24-33-974.txt Node
Date: Thu Jul 18 17:24:33 EDT 2019
User: cochatt
Spectrometer: HR+D1059
Trigger mode: 1
Integration Time (sec): 1.000000E-1
Scans to average: 1
Electric dark correction enabled: true
Nonlinearity correction enabled: false
Boxcar width: 0
XAxis mode: Wavelengths
Number of Pixels in Spectrum: 2048
>>>>>Begin Spectral Data<<<<<
223.165	-20.75
223.4	-20.75
223.635	-20.75
223.869	-11.75
224.104	-30.75
224.338	-28.75
224.573	-10.75
224.808	-8.75
225.042	-10.75
225.277	4.25
225.511	-2.75
225.746	-6.75
225.98	-4.75
226.215	11.25
226.449	24.25
226.683	26.25
226.918	44.25
227.152	26.25
227.387	37.25
227.621	23.25
227.856	52.25
228.09	54.25
228.324	52.25
228.559	54.25
228.793	61.25
229.027	91.25
229.262	119.25
229.496	130.25
229.73	143.25
229.964	168.25
230.199	123.25
230.433	126.25
230.667	90.25
230.901	124.25
231.136	104.25
231.37	103.25
231.604	121.25
231.838	120.25
232.072	100.25
232.306	115.25
232.541	119.25
232.775	111.25
233.009	101.25
233.243	122.25
233.477	112.25
233.711	110.25
233.945	115.25
234.179	120.25
234.413	123.25
234.647	119.25
234.881	111.25
235.115	116.25
235.349	128.25
235.583	125.25
235.817	136.25
236.051	125.25
236.285	120.25
236.519	131.25
236.753	139.25
236.987	158.25
237.221	170.25
237.455	241.25
237.689	189.25
237.922	146.25
238.156	159.25
238.39	129.25
238.624	130.25
238.858	122.25
239.091	120.25
239.325	113.25
239.559	126.25
239.793	131.25
240.027	134.25
240.26	157.25
240.494	153.25
240.728	161.25
240.961	179.25
241.195	140.25
241.429	150.25
241.662	147.25
241.896	139.25
242.13	148.25
242.363	131.25
242.597	127.25
242.83	145.25
243.064	138.25
243.298	136.25
243.531	131.25
243.765	149.25
243.998	142.25
244.232	149.25
244.465	138.25
244.699	156.25
244.932	155.25
245.166	145.25
245.399	161.25
245.633	154.25
245.866	141.25
246.099	148.25
246.333	153.25
246.566	168.25
246.8	141.25
247.033	172.25
247.266	165.25
247.5	174.25
247.733	199.25
247.966	185.25
248.2	184.25
248.433	178.25
248.666	180.25
248.899	185.25
249.133	203.25
249.366	225.25
249.599	239.25
249.832	178.25
250.066	184.25
250.299	189.25
250.532	198.25
250.765	212.25
250.998	261.25
251.231	242.25
251.465	231.25
251.698	214.25
251.931	208.25
252.164	200.25
252.397	213.25
252.63	206.25
252.863	204.25
253.096	231.25
253.329	237.25
253.562	249.25
253.795	247.25
254.028	235.25
254.261	234.25
254.494	253.25
254.727	278.25
254.96	286.25
255.193	294.25
255.426	262.25
255.659	249.25
255.892	226.25
256.124	246.25
256.357	256.25
256.59	233.25
256.823	222.25
257.056	226.25
257.289	203.25
257.521	237.25
257.754	233.25
257.987	220.25
258.22	227.25
258.452	235.25
258.685	231.25
258.918	228.25
259.151	223.25
259.383	232.25
259.616	232.25
259.849	242.25
260.081	240.25
260.314	255.25
260.547	270.25
260.779	275.25
261.012	256.25
261.244	242.25
261.477	251.25
261.71	241.25
261.942	233.25
262.175	243.25
262.407	242.25
262.64	231.25
262.872	234.25
263.105	230.25
263.337	226.25
263.57	234.25
263.802	224.25
264.035	225.25
264.267	244.25
264.499	215.25
264.732	225.25
264.964	203.25
265.197	235.25
265.429	214.25
265.661	226.25
265.894	222.25
266.126	231.25
266.358	236.25
266.591	230.25
266.823	228.25
267.055	238.25
267.287	250.25
267.52	223.25
267.752	240.25
267.984	254.25
268.216	250.25
268.448	243.25
268.681	251.25
268.913	261.25
269.145	270.25
269.377	284.25
269.609	283.25
269.841	294.25
270.073	297.25
270.306	321.25
270.538	346.25
270.77	348.25
271.002	337.25
271.234	318.25
271.466	337.25
271.698	336.25
271.93	337.25
272.162	344.25
272.394	358.25
272.626	336.25
272.858	337.25
273.09	316.25
273.322	311.25
273.553	287.25
273.785	292.25
274.017	277.25
274.249	298.25
274.481	284.25
274.713	279.25
274.945	298.25
275.176	289.25
275.408	277.25
275.64	283.25
275.872	285.25
276.104	286.25
276.335	291.25
276.567	282.25
276.799	302.25
277.031	328.25
277.262	339.25
277.494	347.25
277.726	310.25
277.957	316.25
278.189	310.25
278.421	298.25
278.652	292.25
278.884	281.25
279.115	314.25
279.347	278.25
279.579	287.25
279.81	270.25
280.042	281.25
280.273	281.25
280.505	290.25
280.736	289.25
280.968	272.25
281.199	278.25
281.431	270.25
281.662	271.25
281.894	277.25
282.125	300.25
282.356	315.25
282.588	328.25
282.819	329.25
283.051	292.25
283.282	279.25
283.513	277.25
283.745	272.25
283.976	297.25
284.207	302.25
284.439	297.25
284.67	292.25
284.901	311.25
285.132	302.25
285.364	305.25
285.595	288.25
285.826	280.25
286.057	289.25
286.288	289.25
286.52	289.25
286.751	294.25
286.982	318.25
287.213	311.25
287.444	290.25
287.675	304.25
287.906	304.25
288.138	325.25
288.369	322.25
288.6	337.25
288.831	316.25
289.062	319.25
289.293	306.25
289.524	310.25
289.755	304.25
289.986	310.25
290.217	288.25
290.448	305.25
290.679	305.25
290.91	302.25
291.141	300.25
291.371	280.25
291.602	308.25
291.833	310.25
292.064	286.25
292.295	304.25
292.526	293.25
292.757	300.25
292.987	290.25
293.218	306.25
293.449	305.25
293.68	298.25
293.91	300.25
294.141	313.25
294.372	287.25
294.603	304.25
294.833	324.25
295.064	303.25
295.295	297.25
295.525	314.25
295.756	295.25
295.987	324.25
296.217	331.25
296.448	363.25
296.679	324.25
296.909	313.25
297.14	309.25
297.37	313.25
297.601	303.25
297.831	315.25
298.062	319.25
298.292	315.25
298.523	318.25
298.753	318.25
298.984	297.25
299.214	308.25
299.445	324.25
299.675	333.25
299.905	312.25
300.136	339.25
300.366	322.25
300.597	315.25
300.827	327.25
301.057	326.25
301.288	345.25
301.518	358.25
301.748	333.25
301.979	331.25
302.209	329.25
302.439	338.25
302.669	325.25
302.9	335.25
303.13	316.25
303.36	338.25
303.59	345.25
303.82	382.25
304.051	350.25
304.281	328.25
304.511	327.25
304.741	330.25
304.971	353.25
305.201	333.25
305.431	339.25
305.661	344.25
305.891	329.25
306.121	351.25
306.352	342.25
306.582	365.25
306.812	354.25
307.042	343.25
307.272	336.25
307.502	336.25
307.731	343.25
307.961	348.25
308.191	352.25
308.421	336.25
308.651	348.25
308.881	339.25
309.111	358.25
309.341	353.25
309.571	362.25
309.8	370.25
310.03	382.25
310.26	405.25
310.49	388.25
310.72	383.25
310.949	411.25
311.179	424.25
311.409	408.25
311.639	383.25
311.868	390.25
312.098	396.25
312.328	408.25
312.557	409.25
312.787	438.25
313.017	456.25
313.246	411.25
313.476	398.25
313.706	394.25
313.935	410.25
314.165	416.25
314.394	427.25
314.624	414.25
314.853	391.25
315.083	385.25
315.312	397.25
315.542	393.25
315.771	395.25
316.001	389.25
316.23	378.25
316.46	404.25
316.689	386.25
316.919	409.25
317.148	409.25
317.377	395.25
317.607	402.25
317.836	403.25
318.065	388.25
318.295	375.25
318.524	375.25
318.753	386.25
318.983	395.25
319.212	390.25
319.441	420.25
319.67	407.25
319.9	409.25
320.129	414.25
320.358	387.25
320.587	407.25
320.816	417.25
321.046	420.25
321.275	435.25
321.504	419.25
321.733	420.25
321.962	423.25
322.191	456.25
322.42	453.25
322.649	457.25
322.878	488.25
323.108	489.25
323.337	505.25
323.566	556.25
323.795	592.25
324.024	646.25
324.253	768.25
324.482	1114.25
324.71	1712.25
324.939	2530.25
325.168	2194.25
325.397	1095.25
325.626	756.25
325.855	609.25
326.084	571.25
326.313	550.25
326.542	547.25
326.77	605.25
326.999	729.25
327.228	1024.25
327.457	1532.25
327.686	1898.25
327.914	1257.25
328.143	779.25
328.372	672.25
328.6	651.25
328.829	604.25
329.058	642.25
329.287	643.25
329.515	607.25
329.744	536.25
329.972	527.25
330.201	569.25
330.43	560.25
330.658	582.25
330.887	654.25
331.115	650.25
331.344	540.25
331.572	497.25
331.801	497.25
332.03	512.25
332.258	506.25
332.486	459.25
332.715	474.25
332.943	454.25
333.172	462.25
333.4	439.25
333.629	464.25
333.857	495.25
334.085	483.25
334.314	471.25
334.542	463.25
334.771	470.25
334.999	459.25
335.227	450.25
335.455	460.25
335.684	455.25
335.912	465.25
336.14	441.25
336.369	450.25
336.597	456.25
336.825	455.25
337.053	465.25
337.281	443.25
337.51	420.25
337.738	454.25
337.966	454.25
338.194	464.25
338.422	433.25
338.65	462.25
338.878	446.25
339.106	442.25
339.334	426.25
339.562	432.25
339.79	424.25
340.018	423.25
340.246	419.25
340.474	446.25
340.702	450.25
340.93	430.25
341.158	434.25
341.386	451.25
341.614	439.25
341.842	448.25
342.07	448.25
342.298	443.25
342.526	432.25
342.754	423.25
342.981	413.25
343.209	404.25
343.437	408.25
343.665	431.25
343.893	443.25
344.12	442.25
344.348	442.25
344.576	437.25
344.804	462.25
345.031	444.25
345.259	480.25
345.487	452.25
345.714	440.25
345.942	431.25
346.17	427.25
346.397	422.25
346.625	418.25
346.853	412.25
347.08	420.25
347.308	421.25
347.535	418.25
347.763	452.25
347.99	445.25
348.218	450.25
348.445	436.25
348.673	452.25
348.9	440.25
349.128	427.25
349.355	393.25
349.583	414.25
349.81	412.25
350.037	388.25
350.265	432.25
350.492	396.25
350.72	410.25
350.947	409.25
351.174	438.25
351.402	437.25
351.629	428.25
351.856	426.25
352.083	449.25
352.311	445.25
352.538	455.25
352.765	450.25
352.992	420.25
353.22	427.25
353.447	391.25
353.674	401.25
353.901	389.25
354.128	393.25
354.355	399.25
354.583	392.25
354.81	388.25
355.037	393.25
355.264	384.25
355.491	385.25
355.718	370.25
355.945	390.25
356.172	375.25
356.399	382.25
356.626	389.25
356.853	389.25
357.08	386.25
357.307	384.25
357.534	396.25
357.761	397.25
357.988	388.25
358.215	386.25
358.441	386.25
358.668	378.25
358.895	375.25
359.122	389.25
359.349	400.25
359.576	412.25
359.802	439.25
360.029	466.25
360.256	491.25
360.483	476.25
360.709	416.25
360.936	422.25
361.163	423.25
361.39	422.25
361.616	433.25
361.843	396.25
362.07	398.25
362.296	417.25
362.523	401.25
362.749	426.25
362.976	408.25
363.203	408.25
363.429	409.25
363.656	404.25
363.882	393.25
364.109	414.25
364.335	385.25
364.562	396.25
364.788	400.25
365.015	400.25
365.241	402.25
365.468	420.25
365.694	401.25
365.92	410.25
366.147	402.25
366.373	406.25
366.599	380.25
366.826	382.25
367.052	378.25
367.278	367.25
367.505	401.25
367.731	395.25
367.957	384.25
368.184	399.25
368.41	400.25
368.636	383.25
368.862	394.25
369.089	399.25
369.315	403.25
369.541	374.25
369.767	373.25
369.993	377.25
370.219	383.25
370.445	382.25
370.672	385.25
370.898	386.25
371.124	392.25
371.35	388.25
371.576	364.25
371.802	386.25
372.028	394.25
372.254	394.25
372.48	399.25
372.706	380.25
372.932	384.25
373.158	374.25
373.384	390.25
373.61	386.25
373.835	362.25
374.061	374.25
374.287	359.25
374.513	382.25
374.739	382.25
374.965	386.25
375.191	385.25
375.416	383.25
375.642	374.25
375.868	397.25
376.094	377.25
376.319	383.25
376.545	371.25
376.771	385.25
376.997	394.25
377.222	366.25
377.448	396.25
377.674	371.25
377.899	368.25
378.125	377.25
378.35	370.25
378.576	384.25
378.802	371.25
379.027	389.25
379.253	379.25
379.478	370.25
379.704	394.25
379.929	359.25
380.155	374.25
380.38	382.25
380.606	398.25
380.831	379.25
381.057	407.25
381.282	358.25
381.507	373.25
381.733	383.25
381.958	370.25
382.184	385.25
382.409	403.25
382.634	382.25
382.86	361.25
383.085	380.25
383.31	358.25
383.535	395.25
383.761	374.25
383.986	391.25
384.211	384.25
384.436	403.25
384.662	406.25
384.887	395.25
385.112	394.25
385.337	405.25
385.562	398.25
385.787	419.25
386.013	400.25
386.238	416.25
386.463	430.25
386.688	411.25
386.913	386.25
387.138	400.25
387.363	407.25
387.588	408.25
387.813	395.25
388.038	377.25
388.263	409.25
388.488	402.25
388.713	395.25
388.938	407.25
389.163	414.25
389.387	400.25
389.612	391.25
389.837	408.25
390.062	407.25
390.287	408.25
390.512	392.25
390.736	399.25
390.961	386.25
391.186	380.25
391.411	401.25
391.636	395.25
391.86	408.25
392.085	391.25
392.31	414.25
392.534	408.25
392.759	404.25
392.984	395.25
393.208	413.25
393.433	404.25
393.658	412.25
393.882	392.25
394.107	390.25
394.331	423.25
394.556	408.25
394.78	411.25
395.005	409.25
395.229	396.25
395.454	407.25
395.678	426.25
395.903	405.25
396.127	440.25
396.352	449.25
396.576	427.25
396.801	416.25
397.025	423.25
397.249	427.25
397.474	423.25
397.698	431.25
397.922	440.25
398.147	447.25
398.371	431.25
398.595	452.25
398.82	466.25
399.044	464.25
399.268	447.25
399.492	480.25
399.717	503.25
399.941	512.25
400.165	570.25
400.389	560.25
400.613	503.25
400.837	495.25
401.062	483.25
401.286	451.25
401.51	452.25
401.734	472.25
401.958	450.25
402.182	443.25
402.406	460.25
402.63	473.25
402.854	459.25
403.078	467.25
403.302	465.25
403.526	467.25
403.75	466.25
403.974	457.25
404.198	472.25
404.422	470.25
404.645	475.25
404.869	473.25
405.093	488.25
405.317	519.25
405.541	528.25
405.765	508.25
405.988	477.25
406.212	488.25
406.436	546.25
406.66	528.25
406.883	514.25
407.107	528.25
407.331	575.25
407.555	627.25
407.778	652.25
408.002	555.25
408.226	539.25
408.449	520.25
408.673	520.25
408.896	561.25
409.12	591.25
409.344	545.25
409.567	496.25
409.791	485.25
410.014	457.25
410.238	476.25
410.461	467.25
410.685	467.25
410.908	470.25
411.132	532.25
411.355	537.25
411.578	553.25
411.802	491.25
412.025	463.25
412.249	471.25
412.472	468.25
412.695	498.25
412.919	467.25
413.142	464.25
413.365	464.25
413.589	459.25
413.812	436.25
414.035	430.25
414.258	422.25
414.482	410.25
414.705	452.25
414.928	407.25
415.151	434.25
415.374	422.25
415.597	437.25
415.821	456.25
416.044	447.25
416.267	427.25
416.49	436.25
416.713	449.25
416.936	435.25
417.159	441.25
417.382	434.25
417.605	468.25
417.828	447.25
418.051	468.25
418.274	458.25
418.497	438.25
418.72	420.25
418.943	436.25
419.166	446.25
419.389	473.25
419.611	451.25
419.834	453.25
420.057	463.25
420.28	475.25
420.503	467.25
420.726	458.25
420.948	476.25
421.171	500.25
421.394	569.25
421.617	454.25
421.839	448.25
422.062	477.25
422.285	478.25
422.507	553.25
422.73	595.25
422.953	592.25
423.175	496.25
423.398	478.25
423.621	514.25
423.843	520.25
424.066	519.25
424.288	513.25
424.511	549.25
424.733	594.25
424.956	672.25
425.178	646.25
425.401	638.25
425.623	644.25
425.846	542.25
426.068	530.25
426.291	502.25
426.513	513.25
426.735	520.25
426.958	580.25
427.18	632.25
427.402	762.25
427.625	850.25
427.847	731.25
428.069	641.25
428.292	554.25
428.514	516.25
428.736	492.25
428.958	476.25
429.181	468.25
429.403	459.25
429.625	474.25
429.847	510.25
430.069	610.25
430.292	599.25
430.514	506.25
430.736	464.25
430.958	483.25
431.18	456.25
431.402	453.25
431.624	447.25
431.846	433.25
432.068	437.25
432.29	446.25
432.512	446.25
432.734	460.25
432.956	450.25
433.178	457.25
433.4	485.25
433.622	439.25
433.844	434.25
434.066	436.25
434.287	456.25
434.509	434.25
434.731	452.25
434.953	459.25
435.175	478.25
435.397	488.25
435.618	500.25
435.84	544.25
436.062	651.25
436.284	718.25
436.505	612.25
436.727	544.25
436.949	493.25
437.17	481.25
437.392	482.25
437.614	490.25
437.835	542.25
438.057	664.25
438.278	690.25
438.5	719.25
438.721	780.25
438.943	763.25
439.165	577.25
439.386	544.25
439.608	511.25
439.829	540.25
440.05	578.25
440.272	598.25
440.493	572.25
440.715	520.25
440.936	504.25
441.158	488.25
441.379	465.25
441.6	480.25
441.822	513.25
442.043	534.25
442.264	632.25
442.486	690.25
442.707	578.25
442.928	535.25
443.149	530.25
443.371	537.25
443.592	600.25
443.813	676.25
444.034	754.25
444.255	604.25
444.476	544.25
444.698	517.25
444.919	500.25
445.14	625.25
445.361	582.25
445.582	572.25
445.803	638.25
446.024	732.25
446.245	750.25
446.466	659.25
446.687	562.25
446.908	517.25
447.129	460.25
447.35	486.25
447.571	470.25
447.792	478.25
448.013	467.25
448.234	500.25
448.455	553.25
448.675	675.25
448.896	781.25
449.117	678.25
449.338	602.25
449.559	689.25
449.779	827.25
450	680.25
450.221	534.25
450.442	506.25
450.662	480.25
450.883	452.25
451.104	496.25
451.324	480.25
451.545	463.25
451.766	442.25
451.986	426.25
452.207	431.25
452.428	402.25
452.648	432.25
452.869	409.25
453.089	426.25
453.31	421.25
453.53	438.25
453.751	426.25
453.971	423.25
454.192	441.25
454.412	438.25
454.633	413.25
454.853	424.25
455.073	432.25
455.294	447.25
455.514	515.25
455.734	499.25
455.955	410.25
456.175	407.25
456.395	404.25
456.616	386.25
456.836	398.25
457.056	411.25
457.276	380.25
457.497	418.25
457.717	393.25
457.937	422.25
458.157	421.25
458.377	404.25
458.598	433.25
458.818	495.25
459.038	584.25
459.258	615.25
459.478	499.25
459.698	458.25
459.918	427.25
460.138	431.25
460.358	427.25
460.578	423.25
460.798	426.25
461.018	447.25
461.238	446.25
461.458	443.25
461.678	420.25
461.898	423.25
462.118	440.25
462.338	446.25
462.558	439.25
462.777	454.25
462.997	446.25
463.217	468.25
463.437	464.25
463.657	456.25
463.876	452.25
464.096	442.25
464.316	459.25
464.536	449.25
464.755	474.25
464.975	450.25
465.195	531.25
465.414	617.25
465.634	523.25
465.854	476.25
466.073	457.25
466.293	450.25
466.512	444.25
466.732	427.25
466.951	419.25
467.171	414.25
467.391	418.25
467.61	415.25
467.829	438.25
468.049	432.25
468.268	433.25
468.488	388.25
468.707	391.25
468.927	411.25
469.146	407.25
469.365	421.25
469.585	411.25
469.804	442.25
470.023	455.25
470.243	423.25
470.462	442.25
470.681	457.25
470.901	438.25
471.12	432.25
471.339	410.25
471.558	447.25
471.777	442.25
471.997	412.25
472.216	423.25
472.435	418.25
472.654	443.25
472.873	437.25
473.092	433.25
473.311	437.25
473.53	434.25
473.749	440.25
473.968	476.25
474.187	575.25
474.406	622.25
474.625	495.25
474.844	442.25
475.063	447.25
475.282	439.25
475.501	441.25
475.72	434.25
475.939	445.25
476.158	410.25
476.377	436.25
476.596	442.25
476.814	447.25
477.033	455.25
477.252	441.25
477.471	453.25
477.69	468.25
477.908	450.25
478.127	473.25
478.346	453.25
478.564	474.25
478.783	461.25
479.002	466.25
479.22	497.25
479.439	507.25
479.658	519.25
479.876	508.25
480.095	516.25
480.313	542.25
480.532	542.25
480.751	520.25
480.969	518.25
481.188	538.25
481.406	553.25
481.624	519.25
481.843	512.25
482.061	509.25
482.28	483.25
482.498	487.25
482.717	517.25
482.935	499.25
483.153	502.25
483.372	491.25
483.59	497.25
483.808	502.25
484.027	494.25
484.245	499.25
484.463	514.25
484.681	497.25
484.9	512.25
485.118	512.25
485.336	503.25
485.554	513.25
485.772	522.25
485.99	510.25
486.209	525.25
486.427	511.25
486.645	540.25
486.863	560.25
487.081	558.25
487.299	545.25
487.517	526.25
487.735	532.25
487.953	530.25
488.171	548.25
488.389	532.25
488.607	561.25
488.825	558.25
489.043	552.25
489.261	544.25
489.479	567.25
489.696	567.25
489.914	568.25
490.132	569.25
490.35	570.25
490.568	581.25
490.786	583.25
491.003	594.25
491.221	601.25
491.439	614.25
491.657	626.25
491.874	592.25
492.092	615.25
492.31	619.25
492.527	612.25
492.745	608.25
492.963	634.25
493.18	651.25
493.398	629.25
493.615	625.25
493.833	630.25
494.05	629.25
494.268	636.25
494.485	631.25
494.703	627.25
494.92	622.25
495.138	664.25
495.355	648.25
495.573	644.25
495.79	642.25
496.008	662.25
496.225	638.25
496.442	645.25
496.66	641.25
496.877	656.25
497.094	644.25
497.312	655.25
497.529	662.25
497.746	679.25
497.963	685.25
498.181	711.25
498.398	698.25
498.615	697.25
498.832	700.25
499.049	729.25
499.267	742.25
499.484	759.25
499.701	761.25
499.918	793.25
500.135	802.25
500.352	839.25
500.569	841.25
500.786	840.25
501.003	841.25
501.22	839.25
501.437	805.25
501.654	795.25
501.871	804.25
