Data from 1989.PennyLincolnUp.Lamp.En5.5.200Scan.071819.P2_HRD10591_17-24-00-972.txt Node
Date: Thu Jul 18 17:24:00 EDT 2019
User: cochatt
Spectrometer: HR+D1059
Trigger mode: 1
Integration Time (sec): 1.000000E-1
Scans to average: 1
Electric dark correction enabled: true
Nonlinearity correction enabled: false
Boxcar width: 0
XAxis mode: Wavelengths
Number of Pixels in Spectrum: 2048
>>>>>Begin Spectral Data<<<<<
223.165	-15.69
223.4	-15.69
223.635	-15.69
223.869	-17.69
224.104	-17.69
224.338	-11.69
224.573	-15.69
224.808	-12.69
225.042	-5.69
225.277	-13.69
225.511	3.31
225.746	2.31
225.98	2.31
226.215	7.31
226.449	9.31
226.683	22.31
226.918	35.31
227.152	28.31
227.387	33.31
227.621	41.31
227.856	43.31
228.09	32.31
228.324	41.31
228.559	61.31
228.793	82.31
229.027	116.31
229.262	112.31
229.496	120.31
229.73	137.31
229.964	160.31
230.199	136.31
230.433	114.31
230.667	120.31
230.901	123.31
231.136	120.31
231.37	121.31
231.604	121.31
231.838	136.31
232.072	116.31
232.306	134.31
232.541	108.31
232.775	104.31
233.009	112.31
233.243	106.31
233.477	127.31
233.711	114.31
233.945	104.31
234.179	112.31
234.413	108.31
234.647	129.31
234.881	106.31
235.115	118.31
235.349	122.31
235.583	98.31
235.817	134.31
236.051	121.31
236.285	130.31
236.519	117.31
236.753	114.31
236.987	135.31
237.221	186.31
237.455	237.31
237.689	188.31
237.922	148.31
238.156	143.31
238.39	141.31
238.624	146.31
238.858	124.31
239.091	131.31
239.325	113.31
239.559	128.31
239.793	126.31
240.027	136.31
240.26	149.31
240.494	167.31
240.728	146.31
240.961	154.31
241.195	157.31
241.429	151.31
241.662	144.31
241.896	136.31
242.13	122.31
242.363	131.31
242.597	128.31
242.83	137.31
243.064	136.31
243.298	145.31
243.531	139.31
243.765	143.31
243.998	146.31
244.232	137.31
244.465	148.31
244.699	153.31
244.932	138.31
245.166	153.31
245.399	152.31
245.633	144.31
245.866	151.31
246.099	157.31
246.333	156.31
246.566	158.31
246.8	148.31
247.033	167.31
247.266	170.31
247.5	153.31
247.733	175.31
247.966	194.31
248.2	167.31
248.433	186.31
248.666	168.31
248.899	187.31
249.133	196.31
249.366	205.31
249.599	198.31
249.832	206.31
250.066	183.31
250.299	191.31
250.532	207.31
250.765	207.31
250.998	223.31
251.231	231.31
251.465	220.31
251.698	224.31
251.931	206.31
252.164	218.31
252.397	212.31
252.63	224.31
252.863	221.31
253.096	229.31
253.329	231.31
253.562	218.31
253.795	226.31
254.028	246.31
254.261	243.31
254.494	254.31
254.727	259.31
254.96	301.31
255.193	304.31
255.426	256.31
255.659	238.31
255.892	243.31
256.124	250.31
256.357	228.31
256.59	216.31
256.823	234.31
257.056	222.31
257.289	230.31
257.521	229.31
257.754	217.31
257.987	226.31
258.22	214.31
258.452	242.31
258.685	233.31
258.918	214.31
259.151	217.31
259.383	242.31
259.616	236.31
259.849	240.31
260.081	242.31
260.314	259.31
260.547	278.31
260.779	253.31
261.012	248.31
261.244	248.31
261.477	231.31
261.71	260.31
261.942	245.31
262.175	258.31
262.407	262.31
262.64	245.31
262.872	235.31
263.105	240.31
263.337	226.31
263.57	221.31
263.802	239.31
264.035	224.31
264.267	228.31
264.499	219.31
264.732	234.31
264.964	220.31
265.197	229.31
265.429	245.31
265.661	227.31
265.894	235.31
266.126	227.31
266.358	232.31
266.591	235.31
266.823	236.31
267.055	219.31
267.287	223.31
267.52	237.31
267.752	231.31
267.984	232.31
268.216	227.31
268.448	237.31
268.681	245.31
268.913	261.31
269.145	280.31
269.377	279.31
269.609	297.31
269.841	264.31
270.073	280.31
270.306	292.31
270.538	335.31
270.77	333.31
271.002	330.31
271.234	312.31
271.466	324.31
271.698	325.31
271.93	352.31
272.162	365.31
272.394	364.31
272.626	327.31
272.858	311.31
273.09	288.31
273.322	299.31
273.553	293.31
273.785	283.31
274.017	268.31
274.249	293.31
274.481	283.31
274.713	275.31
274.945	278.31
275.176	273.31
275.408	269.31
275.64	274.31
275.872	286.31
276.104	264.31
276.335	286.31
276.567	269.31
276.799	308.31
277.031	322.31
277.262	337.31
277.494	326.31
277.726	301.31
277.957	312.31
278.189	299.31
278.421	289.31
278.652	305.31
278.884	288.31
279.115	284.31
279.347	284.31
279.579	294.31
279.81	259.31
280.042	278.31
280.273	294.31
280.505	281.31
280.736	284.31
280.968	275.31
281.199	269.31
281.431	269.31
281.662	276.31
281.894	274.31
282.125	293.31
282.356	307.31
282.588	312.31
282.819	324.31
283.051	292.31
283.282	296.31
283.513	275.31
283.745	276.31
283.976	298.31
284.207	288.31
284.439	292.31
284.67	284.31
284.901	299.31
285.132	275.31
285.364	277.31
285.595	273.31
285.826	286.31
286.057	278.31
286.288	286.31
286.52	307.31
286.751	305.31
286.982	306.31
287.213	301.31
287.444	304.31
287.675	308.31
287.906	323.31
288.138	311.31
288.369	317.31
288.6	301.31
288.831	322.31
289.062	314.31
289.293	305.31
289.524	296.31
289.755	295.31
289.986	287.31
290.217	305.31
290.448	318.31
290.679	297.31
290.91	291.31
291.141	304.31
291.371	308.31
291.602	289.31
291.833	291.31
292.064	296.31
292.295	306.31
292.526	298.31
292.757	310.31
292.987	304.31
293.218	302.31
293.449	313.31
293.68	292.31
293.91	298.31
294.141	290.31
294.372	299.31
294.603	310.31
294.833	312.31
295.064	288.31
295.295	310.31
295.525	294.31
295.756	314.31
295.987	312.31
296.217	347.31
296.448	349.31
296.679	326.31
296.909	314.31
297.14	295.31
297.37	318.31
297.601	301.31
297.831	325.31
298.062	307.31
298.292	299.31
298.523	300.31
298.753	303.31
298.984	314.31
299.214	319.31
299.445	322.31
299.675	315.31
299.905	330.31
300.136	327.31
300.366	328.31
300.597	315.31
300.827	326.31
301.057	340.31
301.288	365.31
301.518	318.31
301.748	332.31
301.979	333.31
302.209	342.31
302.439	342.31
302.669	355.31
302.9	327.31
303.13	329.31
303.36	344.31
303.59	342.31
303.82	361.31
304.051	354.31
304.281	336.31
304.511	352.31
304.741	325.31
304.971	331.31
305.201	329.31
305.431	311.31
305.661	326.31
305.891	327.31
306.121	328.31
306.352	341.31
306.582	354.31
306.812	326.31
307.042	350.31
307.272	330.31
307.502	322.31
307.731	358.31
307.961	345.31
308.191	354.31
308.421	332.31
308.651	341.31
308.881	339.31
309.111	349.31
309.341	368.31
309.571	378.31
309.8	373.31
310.03	365.31
310.26	385.31
310.49	398.31
310.72	388.31
310.949	388.31
311.179	417.31
311.409	408.31
311.639	388.31
311.868	390.31
312.098	398.31
312.328	394.31
312.557	422.31
312.787	426.31
313.017	434.31
313.246	405.31
313.476	384.31
313.706	374.31
313.935	396.31
314.165	409.31
314.394	395.31
314.624	420.31
314.853	388.31
315.083	396.31
315.312	381.31
315.542	386.31
315.771	384.31
316.001	384.31
316.23	376.31
316.46	387.31
316.689	390.31
316.919	388.31
317.148	407.31
317.377	397.31
317.607	402.31
317.836	399.31
318.065	402.31
318.295	391.31
318.524	392.31
318.753	389.31
318.983	403.31
319.212	386.31
319.441	380.31
319.67	408.31
319.9	394.31
320.129	398.31
320.358	407.31
320.587	398.31
320.816	412.31
321.046	426.31
321.275	450.31
321.504	420.31
321.733	417.31
321.962	407.31
322.191	441.31
322.42	428.31
322.649	468.31
322.878	475.31
323.108	478.31
323.337	518.31
323.566	529.31
323.795	560.31
324.024	617.31
324.253	745.31
324.482	1038.31
324.71	1625.31
324.939	2349.31
325.168	2048.31
325.397	1089.31
325.626	708.31
325.855	590.31
326.084	565.31
326.313	536.31
326.542	539.31
326.77	573.31
326.999	675.31
327.228	965.31
327.457	1450.31
327.686	1733.31
327.914	1189.31
328.143	799.31
328.372	667.31
328.6	604.31
328.829	586.31
329.058	597.31
329.287	605.31
329.515	560.31
329.744	504.31
329.972	499.31
330.201	510.31
330.43	568.31
330.658	596.31
330.887	620.31
331.115	628.31
331.344	528.31
331.572	504.31
331.801	502.31
332.03	512.31
332.258	492.31
332.486	452.31
332.715	453.31
332.943	459.31
333.172	445.31
333.4	416.31
333.629	437.31
333.857	468.31
334.085	464.31
334.314	467.31
334.542	467.31
334.771	466.31
334.999	459.31
335.227	442.31
335.455	453.31
335.684	425.31
335.912	441.31
336.14	446.31
336.369	448.31
336.597	458.31
336.825	455.31
337.053	461.31
337.281	437.31
337.51	433.31
337.738	443.31
337.966	439.31
338.194	461.31
338.422	461.31
338.65	428.31
338.878	456.31
339.106	450.31
339.334	442.31
339.562	440.31
339.79	411.31
340.018	436.31
340.246	444.31
340.474	425.31
340.702	438.31
340.93	435.31
341.158	418.31
341.386	422.31
341.614	420.31
341.842	444.31
342.07	429.31
342.298	434.31
342.526	404.31
342.754	415.31
342.981	406.31
343.209	411.31
343.437	432.31
343.665	442.31
343.893	406.31
344.12	436.31
344.348	435.31
344.576	428.31
344.804	444.31
345.031	452.31
345.259	458.31
345.487	466.31
345.714	457.31
345.942	426.31
346.17	427.31
346.397	419.31
346.625	412.31
346.853	417.31
347.08	408.31
347.308	441.31
347.535	429.31
347.763	447.31
347.99	428.31
348.218	435.31
348.445	432.31
348.673	422.31
348.9	399.31
349.128	414.31
349.355	402.31
349.583	410.31
349.81	395.31
350.037	386.31
350.265	391.31
350.492	410.31
350.72	394.31
350.947	420.31
351.174	422.31
351.402	433.31
351.629	427.31
351.856	416.31
352.083	448.31
352.311	444.31
352.538	448.31
352.765	440.31
352.992	442.31
353.22	425.31
353.447	444.31
353.674	399.31
353.901	412.31
354.128	400.31
354.355	393.31
354.583	400.31
354.81	398.31
355.037	386.31
355.264	389.31
355.491	365.31
355.718	359.31
355.945	384.31
356.172	377.31
356.399	377.31
356.626	381.31
356.853	373.31
357.08	391.31
357.307	389.31
357.534	396.31
357.761	401.31
357.988	388.31
358.215	373.31
358.441	382.31
358.668	387.31
358.895	396.31
359.122	387.31
359.349	388.31
359.576	408.31
359.802	440.31
360.029	481.31
360.256	480.31
360.483	440.31
360.709	401.31
360.936	414.31
361.163	405.31
361.39	426.31
361.616	399.31
361.843	414.31
362.07	416.31
362.296	411.31
362.523	422.31
362.749	417.31
362.976	408.31
363.203	399.31
363.429	398.31
363.656	392.31
363.882	390.31
364.109	377.31
364.335	381.31
364.562	380.31
364.788	382.31
365.015	381.31
365.241	389.31
365.468	414.31
365.694	404.31
365.92	396.31
366.147	410.31
366.373	407.31
366.599	379.31
366.826	383.31
367.052	378.31
367.278	378.31
367.505	393.31
367.731	401.31
367.957	385.31
368.184	397.31
368.41	385.31
368.636	393.31
368.862	399.31
369.089	392.31
369.315	382.31
369.541	384.31
369.767	381.31
369.993	367.31
370.219	377.31
370.445	381.31
370.672	381.31
370.898	371.31
371.124	363.31
371.35	380.31
371.576	390.31
371.802	390.31
372.028	376.31
372.254	388.31
372.48	387.31
372.706	383.31
372.932	379.31
373.158	391.31
373.384	395.31
373.61	386.31
373.835	384.31
374.061	382.31
374.287	377.31
374.513	379.31
374.739	379.31
374.965	365.31
375.191	384.31
375.416	386.31
375.642	379.31
375.868	387.31
376.094	380.31
376.319	365.31
376.545	370.31
376.771	359.31
376.997	373.31
377.222	372.31
377.448	381.31
377.674	379.31
377.899	354.31
378.125	362.31
378.35	400.31
378.576	382.31
378.802	384.31
379.027	395.31
379.253	379.31
379.478	371.31
379.704	378.31
379.929	377.31
380.155	393.31
380.38	372.31
380.606	384.31
380.831	381.31
381.057	391.31
381.282	375.31
381.507	380.31
381.733	378.31
381.958	392.31
382.184	396.31
382.409	387.31
382.634	381.31
382.86	372.31
383.085	378.31
383.31	380.31
383.535	388.31
383.761	389.31
383.986	405.31
384.211	378.31
384.436	398.31
384.662	425.31
384.887	404.31
385.112	390.31
385.337	403.31
385.562	380.31
385.787	385.31
386.013	394.31
386.238	411.31
386.463	408.31
386.688	428.31
386.913	375.31
387.138	410.31
387.363	407.31
387.588	403.31
387.813	402.31
388.038	426.31
388.263	390.31
388.488	422.31
388.713	393.31
388.938	380.31
389.163	403.31
389.387	417.31
389.612	388.31
389.837	375.31
390.062	394.31
390.287	391.31
390.512	402.31
390.736	393.31
390.961	395.31
391.186	396.31
391.411	388.31
391.636	405.31
391.86	418.31
392.085	398.31
392.31	397.31
392.534	421.31
392.759	404.31
392.984	383.31
393.208	391.31
393.433	399.31
393.658	403.31
393.882	410.31
394.107	390.31
394.331	404.31
394.556	396.31
394.78	406.31
395.005	405.31
395.229	397.31
395.454	409.31
395.678	411.31
395.903	412.31
396.127	444.31
396.352	450.31
396.576	427.31
396.801	415.31
397.025	419.31
397.249	423.31
397.474	420.31
397.698	410.31
397.922	421.31
398.147	466.31
398.371	458.31
398.595	433.31
398.82	443.31
399.044	457.31
399.268	460.31
399.492	477.31
399.717	494.31
399.941	521.31
400.165	542.31
400.389	566.31
400.613	514.31
400.837	473.31
401.062	452.31
401.286	475.31
401.51	446.31
401.734	470.31
401.958	449.31
402.182	456.31
402.406	465.31
402.63	462.31
402.854	459.31
403.078	448.31
403.302	459.31
403.526	468.31
403.75	473.31
403.974	468.31
404.198	448.31
404.422	473.31
404.645	505.31
404.869	469.31
405.093	474.31
405.317	514.31
405.541	522.31
405.765	493.31
405.988	490.31
406.212	503.31
406.436	496.31
406.66	516.31
406.883	499.31
407.107	517.31
407.331	571.31
407.555	608.31
407.778	612.31
408.002	574.31
408.226	529.31
408.449	531.31
408.673	521.31
408.896	550.31
409.12	596.31
409.344	548.31
409.567	493.31
409.791	458.31
410.014	439.31
410.238	468.31
410.461	481.31
410.685	464.31
410.908	471.31
411.132	533.31
411.355	546.31
411.578	523.31
411.802	473.31
412.025	441.31
412.249	453.31
412.472	487.31
412.695	475.31
412.919	471.31
413.142	443.31
413.365	442.31
413.589	452.31
413.812	445.31
414.035	458.31
414.258	456.31
414.482	439.31
414.705	438.31
414.928	421.31
415.151	429.31
415.374	449.31
415.597	426.31
415.821	447.31
416.044	432.31
416.267	426.31
416.49	432.31
416.713	438.31
416.936	434.31
417.159	427.31
417.382	431.31
417.605	450.31
417.828	468.31
418.051	475.31
418.274	471.31
418.497	430.31
418.72	424.31
418.943	452.31
419.166	448.31
419.389	452.31
419.611	462.31
419.834	469.31
420.057	469.31
420.28	449.31
420.503	444.31
420.726	454.31
420.948	460.31
421.171	518.31
421.394	546.31
421.617	502.31
421.839	461.31
422.062	444.31
422.285	471.31
422.507	532.31
422.73	608.31
422.953	585.31
423.175	497.31
423.398	487.31
423.621	485.31
423.843	493.31
424.066	532.31
424.288	492.31
424.511	515.31
424.733	561.31
424.956	648.31
425.178	630.31
425.401	636.31
425.623	626.31
425.846	557.31
426.068	500.31
426.291	510.31
426.513	510.31
426.735	520.31
426.958	560.31
427.18	659.31
427.402	749.31
427.625	853.31
427.847	718.31
428.069	640.31
428.292	548.31
428.514	521.31
428.736	473.31
428.958	467.31
429.181	438.31
429.403	461.31
429.625	470.31
429.847	521.31
430.069	555.31
430.292	581.31
430.514	513.31
430.736	470.31
430.958	475.31
431.18	448.31
431.402	454.31
431.624	439.31
431.846	425.31
432.068	441.31
432.29	433.31
432.512	442.31
432.734	449.31
432.956	434.31
433.178	452.31
433.4	449.31
433.622	460.31
433.844	446.31
434.066	444.31
434.287	425.31
434.509	447.31
434.731	435.31
434.953	453.31
435.175	466.31
435.397	484.31
435.618	493.31
435.84	555.31
436.062	619.31
436.284	705.31
436.505	602.31
436.727	526.31
436.949	511.31
437.17	447.31
437.392	447.31
437.614	484.31
437.835	516.31
438.057	632.31
438.278	705.31
438.5	712.31
438.721	775.31
438.943	745.31
439.165	599.31
439.386	543.31
439.608	517.31
439.829	525.31
440.05	566.31
440.272	592.31
440.493	564.31
440.715	522.31
440.936	508.31
441.158	449.31
441.379	461.31
441.6	480.31
441.822	498.31
442.043	541.31
442.264	607.31
442.486	665.31
442.707	562.31
442.928	527.31
443.149	516.31
443.371	556.31
443.592	608.31
443.813	700.31
444.034	732.31
444.255	617.31
444.476	536.31
444.698	515.31
444.919	507.31
445.14	585.31
445.361	563.31
445.582	553.31
445.803	616.31
446.024	721.31
446.245	728.31
446.466	652.31
446.687	562.31
446.908	517.31
447.129	479.31
447.35	484.31
447.571	466.31
447.792	470.31
448.013	464.31
448.234	480.31
448.455	561.31
448.675	668.31
448.896	757.31
449.117	653.31
449.338	608.31
449.559	723.31
449.779	792.31
450	642.31
450.221	526.31
450.442	505.31
450.662	473.31
450.883	484.31
451.104	501.31
451.324	484.31
451.545	452.31
451.766	437.31
451.986	416.31
452.207	414.31
452.428	418.31
452.648	426.31
452.869	429.31
453.089	429.31
453.31	417.31
453.53	428.31
453.751	425.31
453.971	423.31
454.192	441.31
454.412	426.31
454.633	417.31
454.853	417.31
455.073	415.31
455.294	442.31
455.514	512.31
455.734	512.31
455.955	435.31
456.175	388.31
456.395	382.31
456.616	384.31
456.836	395.31
457.056	377.31
457.276	394.31
457.497	400.31
457.717	390.31
457.937	388.31
458.157	408.31
458.377	396.31
458.598	428.31
458.818	504.31
459.038	567.31
459.258	620.31
459.478	489.31
459.698	425.31
459.918	434.31
460.138	434.31
460.358	432.31
460.578	410.31
460.798	412.31
461.018	438.31
461.238	420.31
461.458	416.31
461.678	449.31
461.898	446.31
462.118	418.31
462.338	451.31
462.558	440.31
462.777	434.31
462.997	449.31
463.217	478.31
463.437	450.31
463.657	462.31
463.876	467.31
464.096	449.31
464.316	474.31
464.536	466.31
464.755	465.31
464.975	474.31
465.195	521.31
465.414	592.31
465.634	516.31
465.854	482.31
466.073	451.31
466.293	444.31
466.512	425.31
466.732	408.31
466.951	398.31
467.171	420.31
467.391	406.31
467.61	423.31
467.829	442.31
468.049	427.31
468.268	432.31
468.488	410.31
468.707	410.31
468.927	413.31
469.146	401.31
469.365	410.31
469.585	397.31
469.804	409.31
470.023	437.31
470.243	423.31
470.462	414.31
470.681	442.31
470.901	439.31
471.12	413.31
471.339	442.31
471.558	440.31
471.777	435.31
471.997	417.31
472.216	403.31
472.435	409.31
472.654	419.31
472.873	422.31
473.092	422.31
473.311	415.31
473.53	426.31
473.749	411.31
473.968	478.31
474.187	581.31
474.406	603.31
474.625	483.31
474.844	429.31
475.063	442.31
475.282	421.31
475.501	432.31
475.72	448.31
475.939	453.31
476.158	435.31
476.377	420.31
476.596	444.31
476.814	456.31
477.033	434.31
477.252	432.31
477.471	474.31
477.69	461.31
477.908	463.31
478.127	464.31
478.346	487.31
478.564	474.31
478.783	476.31
479.002	461.31
479.22	475.31
479.439	487.31
479.658	525.31
479.876	498.31
480.095	520.31
480.313	543.31
480.532	532.31
480.751	501.31
480.969	515.31
481.188	530.31
481.406	508.31
481.624	524.31
481.843	514.31
482.061	501.31
482.28	505.31
482.498	512.31
482.717	481.31
482.935	499.31
483.153	492.31
483.372	500.31
483.59	497.31
483.808	489.31
484.027	493.31
484.245	514.31
484.463	494.31
484.681	499.31
484.9	514.31
485.118	512.31
485.336	512.31
485.554	500.31
485.772	511.31
485.99	507.31
486.209	512.31
486.427	521.31
486.645	540.31
486.863	540.31
487.081	550.31
487.299	550.31
487.517	537.31
487.735	542.31
487.953	537.31
488.171	530.31
488.389	541.31
488.607	539.31
488.825	533.31
489.043	518.31
489.261	537.31
489.479	542.31
489.696	551.31
489.914	555.31
490.132	546.31
490.35	558.31
490.568	552.31
490.786	581.31
491.003	581.31
491.221	583.31
491.439	604.31
491.657	610.31
491.874	606.31
492.092	604.31
492.31	636.31
492.527	609.31
492.745	610.31
492.963	603.31
493.18	602.31
493.398	636.31
493.615	621.31
493.833	624.31
494.05	636.31
494.268	644.31
494.485	632.31
494.703	626.31
494.92	627.31
495.138	642.31
495.355	645.31
495.573	625.31
495.79	639.31
496.008	638.31
496.225	638.31
496.442	619.31
496.66	632.31
496.877	622.31
497.094	610.31
497.312	637.31
497.529	648.31
497.746	644.31
497.963	663.31
498.181	678.31
498.398	696.31
498.615	696.31
498.832	697.31
499.049	724.31
499.267	708.31
499.484	725.31
499.701	745.31
499.918	795.31
500.135	793.31
500.352	820.31
500.569	816.31
500.786	829.31
501.003	821.31
501.22	779.31
501.437	819.31
501.654	793.31
501.871	813.31
