Data from 1989.PennyLincolnUp.Lamp.En5.5.200Scan.071819.P2_HRD10591_17-25-43-973.txt Node
Date: Thu Jul 18 17:25:43 EDT 2019
User: cochatt
Spectrometer: HR+D1059
Trigger mode: 1
Integration Time (sec): 1.000000E-1
Scans to average: 1
Electric dark correction enabled: true
Nonlinearity correction enabled: false
Boxcar width: 0
XAxis mode: Wavelengths
Number of Pixels in Spectrum: 2048
>>>>>Begin Spectral Data<<<<<
223.165	-14.56
223.4	-14.56
223.635	-14.56
223.869	0.44
224.104	-10.56
224.338	-21.56
224.573	-3.56
224.808	-5.56
225.042	-6.56
225.277	0.44
225.511	-13.56
225.746	-1.56
225.98	-4.56
226.215	6.44
226.449	12.44
226.683	16.44
226.918	19.44
227.152	26.44
227.387	25.44
227.621	28.44
227.856	48.44
228.09	38.44
228.324	45.44
228.559	48.44
228.793	65.44
229.027	76.44
229.262	110.44
229.496	107.44
229.73	136.44
229.964	175.44
230.199	114.44
230.433	124.44
230.667	121.44
230.901	113.44
231.136	105.44
231.37	120.44
231.604	113.44
231.838	109.44
232.072	113.44
232.306	120.44
232.541	100.44
232.775	91.44
233.009	99.44
233.243	111.44
233.477	116.44
233.711	114.44
233.945	123.44
234.179	125.44
234.413	123.44
234.647	113.44
234.881	122.44
235.115	100.44
235.349	114.44
235.583	121.44
235.817	119.44
236.051	120.44
236.285	132.44
236.519	128.44
236.753	132.44
236.987	144.44
237.221	186.44
237.455	248.44
237.689	195.44
237.922	155.44
238.156	136.44
238.39	146.44
238.624	114.44
238.858	127.44
239.091	127.44
239.325	130.44
239.559	128.44
239.793	126.44
240.027	140.44
240.26	169.44
240.494	162.44
240.728	158.44
240.961	157.44
241.195	150.44
241.429	153.44
241.662	143.44
241.896	138.44
242.13	140.44
242.363	136.44
242.597	142.44
242.83	147.44
243.064	152.44
243.298	148.44
243.531	144.44
243.765	130.44
243.998	144.44
244.232	154.44
244.465	141.44
244.699	153.44
244.932	164.44
245.166	156.44
245.399	159.44
245.633	154.44
245.866	153.44
246.099	161.44
246.333	152.44
246.566	161.44
246.8	151.44
247.033	160.44
247.266	174.44
247.5	160.44
247.733	171.44
247.966	179.44
248.2	187.44
248.433	180.44
248.666	196.44
248.899	206.44
249.133	210.44
249.366	207.44
249.599	213.44
249.832	182.44
250.066	196.44
250.299	191.44
250.532	202.44
250.765	237.44
250.998	247.44
251.231	258.44
251.465	244.44
251.698	226.44
251.931	206.44
252.164	219.44
252.397	211.44
252.63	220.44
252.863	230.44
253.096	231.44
253.329	239.44
253.562	256.44
253.795	259.44
254.028	242.44
254.261	227.44
254.494	246.44
254.727	282.44
254.96	322.44
255.193	287.44
255.426	279.44
255.659	280.44
255.892	275.44
256.124	265.44
256.357	278.44
256.59	244.44
256.823	250.44
257.056	238.44
257.289	245.44
257.521	242.44
257.754	234.44
257.987	216.44
258.22	229.44
258.452	233.44
258.685	225.44
258.918	255.44
259.151	242.44
259.383	243.44
259.616	251.44
259.849	242.44
260.081	254.44
260.314	268.44
260.547	286.44
260.779	277.44
261.012	259.44
261.244	256.44
261.477	247.44
261.71	234.44
261.942	250.44
262.175	250.44
262.407	260.44
262.64	222.44
262.872	257.44
263.105	238.44
263.337	238.44
263.57	232.44
263.802	228.44
264.035	234.44
264.267	246.44
264.499	238.44
264.732	234.44
264.964	230.44
265.197	224.44
265.429	228.44
265.661	219.44
265.894	250.44
266.126	246.44
266.358	234.44
266.591	238.44
266.823	244.44
267.055	238.44
267.287	250.44
267.52	246.44
267.752	248.44
267.984	235.44
268.216	257.44
268.448	245.44
268.681	263.44
268.913	274.44
269.145	283.44
269.377	305.44
269.609	294.44
269.841	303.44
270.073	311.44
270.306	308.44
270.538	339.44
270.77	374.44
271.002	347.44
271.234	323.44
271.466	331.44
271.698	339.44
271.93	337.44
272.162	358.44
272.394	359.44
272.626	346.44
272.858	332.44
273.09	313.44
273.322	312.44
273.553	298.44
273.785	305.44
274.017	278.44
274.249	292.44
274.481	289.44
274.713	302.44
274.945	286.44
275.176	287.44
275.408	311.44
275.64	281.44
275.872	298.44
276.104	280.44
276.335	299.44
276.567	291.44
276.799	333.44
277.031	351.44
277.262	371.44
277.494	351.44
277.726	332.44
277.957	324.44
278.189	313.44
278.421	313.44
278.652	297.44
278.884	266.44
279.115	310.44
279.347	286.44
279.579	300.44
279.81	278.44
280.042	272.44
280.273	286.44
280.505	280.44
280.736	306.44
280.968	281.44
281.199	287.44
281.431	280.44
281.662	291.44
281.894	299.44
282.125	304.44
282.356	297.44
282.588	318.44
282.819	348.44
283.051	312.44
283.282	299.44
283.513	309.44
283.745	300.44
283.976	289.44
284.207	306.44
284.439	313.44
284.67	293.44
284.901	282.44
285.132	306.44
285.364	302.44
285.595	313.44
285.826	287.44
286.057	318.44
286.288	302.44
286.52	294.44
286.751	294.44
286.982	304.44
287.213	301.44
287.444	293.44
287.675	310.44
287.906	310.44
288.138	330.44
288.369	312.44
288.6	322.44
288.831	315.44
289.062	319.44
289.293	321.44
289.524	297.44
289.755	312.44
289.986	315.44
290.217	299.44
290.448	300.44
290.679	307.44
290.91	300.44
291.141	318.44
291.371	306.44
291.602	328.44
291.833	327.44
292.064	314.44
292.295	320.44
292.526	303.44
292.757	295.44
292.987	306.44
293.218	310.44
293.449	320.44
293.68	315.44
293.91	318.44
294.141	299.44
294.372	299.44
294.603	286.44
294.833	285.44
295.064	301.44
295.295	311.44
295.525	315.44
295.756	330.44
295.987	331.44
296.217	357.44
296.448	362.44
296.679	318.44
296.909	306.44
297.14	311.44
297.37	324.44
297.601	334.44
297.831	313.44
298.062	322.44
298.292	311.44
298.523	320.44
298.753	333.44
298.984	333.44
299.214	323.44
299.445	349.44
299.675	337.44
299.905	351.44
300.136	306.44
300.366	330.44
300.597	317.44
300.827	335.44
301.057	353.44
301.288	351.44
301.518	347.44
301.748	344.44
301.979	333.44
302.209	360.44
302.439	352.44
302.669	332.44
302.9	345.44
303.13	348.44
303.36	355.44
303.59	354.44
303.82	359.44
304.051	362.44
304.281	348.44
304.511	357.44
304.741	323.44
304.971	337.44
305.201	352.44
305.431	346.44
305.661	353.44
305.891	332.44
306.121	353.44
306.352	335.44
306.582	370.44
306.812	358.44
307.042	374.44
307.272	357.44
307.502	349.44
307.731	357.44
307.961	358.44
308.191	352.44
308.421	344.44
308.651	354.44
308.881	347.44
309.111	360.44
309.341	355.44
309.571	362.44
309.8	391.44
310.03	378.44
310.26	376.44
310.49	421.44
310.72	407.44
310.949	435.44
311.179	424.44
311.409	414.44
311.639	445.44
311.868	393.44
312.098	410.44
312.328	425.44
312.557	448.44
312.787	450.44
313.017	433.44
313.246	431.44
313.476	413.44
313.706	404.44
313.935	414.44
314.165	421.44
314.394	445.44
314.624	431.44
314.853	423.44
315.083	419.44
315.312	431.44
315.542	408.44
315.771	401.44
316.001	396.44
316.23	401.44
316.46	401.44
316.689	392.44
316.919	419.44
317.148	426.44
317.377	422.44
317.607	415.44
317.836	414.44
318.065	421.44
318.295	396.44
318.524	387.44
318.753	393.44
318.983	408.44
319.212	412.44
319.441	410.44
319.67	424.44
319.9	392.44
320.129	394.44
320.358	410.44
320.587	401.44
320.816	432.44
321.046	439.44
321.275	426.44
321.504	443.44
321.733	443.44
321.962	442.44
322.191	451.44
322.42	479.44
322.649	491.44
322.878	492.44
323.108	509.44
323.337	529.44
323.566	565.44
323.795	616.44
324.024	662.44
324.253	818.44
324.482	1172.44
324.71	1801.44
324.939	2570.44
325.168	2276.44
325.397	1150.44
325.626	758.44
325.855	644.44
326.084	594.44
326.313	571.44
326.542	579.44
326.77	620.44
326.999	736.44
327.228	1037.44
327.457	1620.44
327.686	1970.44
327.914	1330.44
328.143	843.44
328.372	790.44
328.6	672.44
328.829	634.44
329.058	656.44
329.287	650.44
329.515	636.44
329.744	587.44
329.972	574.44
330.201	615.44
330.43	661.44
330.658	691.44
330.887	692.44
331.115	650.44
331.344	578.44
331.572	552.44
331.801	536.44
332.03	525.44
332.258	529.44
332.486	496.44
332.715	486.44
332.943	486.44
333.172	488.44
333.4	507.44
333.629	509.44
333.857	518.44
334.085	521.44
334.314	569.44
334.542	590.44
334.771	632.44
334.999	571.44
335.227	535.44
335.455	505.44
335.684	475.44
335.912	461.44
336.14	470.44
336.369	457.44
336.597	472.44
336.825	459.44
337.053	473.44
337.281	452.44
337.51	447.44
337.738	463.44
337.966	452.44
338.194	470.44
338.422	463.44
338.65	455.44
338.878	449.44
339.106	433.44
339.334	455.44
339.562	444.44
339.79	449.44
340.018	468.44
340.246	464.44
340.474	442.44
340.702	441.44
340.93	441.44
341.158	458.44
341.386	432.44
341.614	462.44
341.842	448.44
342.07	447.44
342.298	450.44
342.526	440.44
342.754	436.44
342.981	423.44
343.209	396.44
343.437	441.44
343.665	414.44
343.893	440.44
344.12	455.44
344.348	438.44
344.576	438.44
344.804	434.44
345.031	471.44
345.259	462.44
345.487	459.44
345.714	435.44
345.942	455.44
346.17	430.44
346.397	425.44
346.625	414.44
346.853	439.44
347.08	425.44
347.308	426.44
347.535	431.44
347.763	438.44
347.99	442.44
348.218	451.44
348.445	449.44
348.673	441.44
348.9	425.44
349.128	443.44
349.355	400.44
349.583	408.44
349.81	422.44
350.037	452.44
350.265	430.44
350.492	426.44
350.72	420.44
350.947	424.44
351.174	446.44
351.402	451.44
351.629	432.44
351.856	425.44
352.083	436.44
352.311	453.44
352.538	445.44
352.765	453.44
352.992	438.44
353.22	426.44
353.447	441.44
353.674	388.44
353.901	422.44
354.128	418.44
354.355	396.44
354.583	417.44
354.81	412.44
355.037	417.44
355.264	396.44
355.491	374.44
355.718	405.44
355.945	382.44
356.172	399.44
356.399	386.44
356.626	374.44
356.853	388.44
357.08	383.44
357.307	386.44
357.534	376.44
357.761	396.44
357.988	403.44
358.215	394.44
358.441	394.44
358.668	383.44
358.895	394.44
359.122	414.44
359.349	430.44
359.576	418.44
359.802	465.44
360.029	473.44
360.256	507.44
360.483	471.44
360.709	426.44
360.936	424.44
361.163	408.44
361.39	435.44
361.616	441.44
361.843	415.44
362.07	423.44
362.296	431.44
362.523	416.44
362.749	384.44
362.976	428.44
363.203	393.44
363.429	404.44
363.656	410.44
363.882	419.44
364.109	396.44
364.335	414.44
364.562	404.44
364.788	406.44
365.015	400.44
365.241	407.44
365.468	392.44
365.694	409.44
365.92	405.44
366.147	399.44
366.373	375.44
366.599	410.44
366.826	408.44
367.052	390.44
367.278	406.44
367.505	403.44
367.731	407.44
367.957	391.44
368.184	380.44
368.41	405.44
368.636	400.44
368.862	404.44
369.089	410.44
369.315	383.44
369.541	408.44
369.767	410.44
369.993	413.44
370.219	405.44
370.445	407.44
370.672	391.44
370.898	414.44
371.124	405.44
371.35	390.44
371.576	378.44
371.802	376.44
372.028	386.44
372.254	388.44
372.48	396.44
372.706	383.44
372.932	384.44
373.158	379.44
373.384	375.44
373.61	395.44
373.835	394.44
374.061	400.44
374.287	396.44
374.513	385.44
374.739	366.44
374.965	387.44
375.191	385.44
375.416	389.44
375.642	386.44
375.868	375.44
376.094	399.44
376.319	372.44
376.545	372.44
376.771	376.44
376.997	376.44
377.222	399.44
377.448	394.44
377.674	386.44
377.899	369.44
378.125	367.44
378.35	382.44
378.576	383.44
378.802	358.44
379.027	386.44
379.253	374.44
379.478	378.44
379.704	357.44
379.929	388.44
380.155	385.44
380.38	382.44
380.606	381.44
380.831	389.44
381.057	378.44
381.282	395.44
381.507	378.44
381.733	386.44
381.958	385.44
382.184	379.44
382.409	356.44
382.634	392.44
382.86	382.44
383.085	377.44
383.31	388.44
383.535	392.44
383.761	400.44
383.986	386.44
384.211	415.44
384.436	392.44
384.662	395.44
384.887	400.44
385.112	381.44
385.337	395.44
385.562	401.44
385.787	406.44
386.013	423.44
386.238	411.44
386.463	416.44
386.688	394.44
386.913	411.44
387.138	412.44
387.363	372.44
387.588	410.44
387.813	414.44
388.038	399.44
388.263	419.44
388.488	402.44
388.713	401.44
388.938	407.44
389.163	413.44
389.387	387.44
389.612	386.44
389.837	396.44
390.062	366.44
390.287	393.44
390.512	388.44
390.736	415.44
390.961	415.44
391.186	404.44
391.411	412.44
391.636	413.44
391.86	402.44
392.085	418.44
392.31	423.44
392.534	402.44
392.759	402.44
392.984	383.44
393.208	410.44
393.433	406.44
393.658	397.44
393.882	384.44
394.107	414.44
394.331	402.44
394.556	387.44
394.78	419.44
395.005	422.44
395.229	407.44
395.454	404.44
395.678	434.44
395.903	423.44
396.127	452.44
396.352	462.44
396.576	424.44
396.801	421.44
397.025	426.44
397.249	431.44
397.474	414.44
397.698	422.44
397.922	426.44
398.147	465.44
398.371	437.44
398.595	451.44
398.82	466.44
399.044	440.44
399.268	457.44
399.492	500.44
399.717	502.44
399.941	527.44
400.165	530.44
400.389	556.44
400.613	494.44
400.837	475.44
401.062	476.44
401.286	443.44
401.51	441.44
401.734	460.44
401.958	456.44
402.182	459.44
402.406	471.44
402.63	468.44
402.854	458.44
403.078	464.44
403.302	487.44
403.526	462.44
403.75	471.44
403.974	499.44
404.198	451.44
404.422	469.44
404.645	465.44
404.869	475.44
405.093	532.44
405.317	563.44
405.541	602.44
405.765	539.44
405.988	491.44
406.212	510.44
406.436	544.44
406.66	536.44
406.883	541.44
407.107	547.44
407.331	587.44
407.555	645.44
407.778	646.44
408.002	584.44
408.226	547.44
408.449	528.44
408.673	531.44
408.896	543.44
409.12	588.44
409.344	558.44
409.567	499.44
409.791	482.44
410.014	486.44
410.238	480.44
410.461	472.44
410.685	476.44
410.908	507.44
411.132	555.44
411.355	573.44
411.578	538.44
411.802	495.44
412.025	478.44
412.249	496.44
412.472	520.44
412.695	555.44
412.919	553.44
413.142	518.44
413.365	474.44
413.589	474.44
413.812	475.44
414.035	461.44
414.258	456.44
414.482	460.44
414.705	437.44
414.928	460.44
415.151	453.44
415.374	426.44
415.597	439.44
415.821	445.44
416.044	455.44
416.267	431.44
416.49	456.44
416.713	443.44
416.936	446.44
417.159	439.44
417.382	456.44
417.605	465.44
417.828	455.44
418.051	469.44
418.274	452.44
418.497	464.44
418.72	454.44
418.943	440.44
419.166	466.44
419.389	487.44
419.611	466.44
419.834	483.44
420.057	484.44
420.28	483.44
420.503	480.44
420.726	480.44
420.948	477.44
421.171	536.44
421.394	573.44
421.617	503.44
421.839	483.44
422.062	470.44
422.285	460.44
422.507	560.44
422.73	595.44
422.953	596.44
423.175	528.44
423.398	509.44
423.621	514.44
423.843	531.44
424.066	512.44
424.288	513.44
424.511	514.44
424.733	572.44
424.956	634.44
425.178	668.44
425.401	637.44
425.623	680.44
425.846	547.44
426.068	532.44
426.291	521.44
426.513	526.44
426.735	521.44
426.958	601.44
427.18	658.44
427.402	756.44
427.625	870.44
427.847	764.44
428.069	694.44
428.292	601.44
428.514	526.44
428.736	496.44
428.958	489.44
429.181	482.44
429.403	496.44
429.625	480.44
429.847	524.44
430.069	580.44
430.292	585.44
430.514	494.44
430.736	466.44
430.958	469.44
431.18	453.44
431.402	426.44
431.624	442.44
431.846	441.44
432.068	431.44
432.29	441.44
432.512	424.44
432.734	450.44
432.956	448.44
433.178	459.44
433.4	472.44
433.622	446.44
433.844	440.44
434.066	459.44
434.287	456.44
434.509	433.44
434.731	461.44
434.953	480.44
435.175	470.44
435.397	508.44
435.618	522.44
435.84	566.44
436.062	636.44
436.284	708.44
436.505	588.44
436.727	536.44
436.949	502.44
437.17	480.44
437.392	465.44
437.614	491.44
437.835	522.44
438.057	618.44
438.278	750.44
438.5	732.44
438.721	778.44
438.943	753.44
439.165	595.44
439.386	568.44
439.608	562.44
439.829	541.44
440.05	562.44
440.272	604.44
440.493	592.44
440.715	543.44
440.936	496.44
441.158	490.44
441.379	480.44
441.6	507.44
441.822	520.44
442.043	569.44
442.264	638.44
442.486	672.44
442.707	577.44
442.928	532.44
443.149	544.44
443.371	567.44
443.592	600.44
443.813	681.44
444.034	751.44
444.255	612.44
444.476	544.44
444.698	515.44
444.919	500.44
445.14	644.44
445.361	594.44
445.582	586.44
445.803	652.44
446.024	732.44
446.245	744.44
446.466	676.44
446.687	577.44
446.908	533.44
447.129	483.44
447.35	483.44
447.571	497.44
447.792	480.44
448.013	491.44
448.234	509.44
448.455	570.44
448.675	668.44
448.896	783.44
449.117	668.44
449.338	620.44
449.559	743.44
449.779	807.44
450	671.44
450.221	575.44
450.442	501.44
450.662	468.44
450.883	473.44
451.104	500.44
451.324	479.44
451.545	468.44
451.766	453.44
451.986	416.44
452.207	435.44
452.428	419.44
452.648	416.44
452.869	432.44
453.089	432.44
453.31	448.44
453.53	452.44
453.751	422.44
453.971	428.44
454.192	452.44
454.412	438.44
454.633	420.44
454.853	422.44
455.073	439.44
455.294	470.44
455.514	521.44
455.734	536.44
455.955	441.44
456.175	422.44
456.395	423.44
456.616	393.44
456.836	394.44
457.056	407.44
457.276	381.44
457.497	400.44
457.717	382.44
457.937	398.44
458.157	401.44
458.377	434.44
458.598	441.44
458.818	498.44
459.038	580.44
459.258	603.44
459.478	516.44
459.698	463.44
459.918	439.44
460.138	452.44
460.358	442.44
460.578	434.44
460.798	438.44
461.018	452.44
461.238	451.44
461.458	443.44
461.678	426.44
461.898	423.44
462.118	416.44
462.338	454.44
462.558	440.44
462.777	449.44
462.997	457.44
463.217	471.44
463.437	467.44
463.657	458.44
463.876	446.44
464.096	449.44
464.316	447.44
464.536	446.44
464.755	473.44
464.975	472.44
465.195	559.44
465.414	615.44
465.634	524.44
465.854	478.44
466.073	460.44
466.293	445.44
466.512	440.44
466.732	430.44
466.951	431.44
467.171	411.44
467.391	450.44
467.61	431.44
467.829	454.44
468.049	450.44
468.268	473.44
468.488	431.44
468.707	423.44
468.927	420.44
469.146	407.44
469.365	424.44
469.585	429.44
469.804	424.44
470.023	440.44
470.243	428.44
470.462	433.44
470.681	463.44
470.901	449.44
471.12	415.44
471.339	438.44
471.558	450.44
471.777	440.44
471.997	423.44
472.216	427.44
472.435	498.44
472.654	483.44
472.873	434.44
473.092	440.44
473.311	438.44
473.53	455.44
473.749	451.44
473.968	529.44
474.187	575.44
474.406	641.44
474.625	518.44
474.844	465.44
475.063	450.44
475.282	438.44
475.501	458.44
475.72	439.44
475.939	448.44
476.158	440.44
476.377	462.44
476.596	438.44
476.814	456.44
477.033	453.44
477.252	478.44
477.471	465.44
477.69	456.44
477.908	483.44
478.127	470.44
478.346	468.44
478.564	470.44
478.783	469.44
479.002	483.44
479.22	502.44
479.439	517.44
479.658	523.44
479.876	506.44
480.095	543.44
480.313	543.44
480.532	569.44
480.751	534.44
480.969	561.44
481.188	636.44
481.406	690.44
481.624	606.44
481.843	569.44
482.061	554.44
482.28	536.44
482.498	515.44
482.717	487.44
482.935	520.44
483.153	526.44
483.372	509.44
483.59	529.44
483.808	500.44
484.027	504.44
484.245	521.44
484.463	534.44
484.681	510.44
484.9	522.44
485.118	514.44
485.336	509.44
485.554	525.44
485.772	550.44
485.99	512.44
486.209	553.44
486.427	535.44
486.645	554.44
486.863	558.44
487.081	567.44
487.299	567.44
487.517	559.44
487.735	550.44
487.953	544.44
488.171	562.44
488.389	561.44
488.607	550.44
488.825	550.44
489.043	556.44
489.261	552.44
489.479	570.44
489.696	584.44
489.914	591.44
490.132	554.44
490.35	571.44
490.568	590.44
490.786	590.44
491.003	604.44
491.221	628.44
491.439	617.44
491.657	645.44
491.874	628.44
492.092	679.44
492.31	636.44
492.527	634.44
492.745	687.44
492.963	656.44
493.18	684.44
493.398	648.44
493.615	698.44
493.833	671.44
494.05	670.44
494.268	667.44
494.485	648.44
494.703	672.44
494.92	659.44
495.138	668.44
495.355	677.44
495.573	690.44
495.79	678.44
496.008	675.44
496.225	665.44
496.442	647.44
496.66	668.44
496.877	650.44
497.094	632.44
497.312	670.44
497.529	665.44
497.746	666.44
497.963	673.44
498.181	721.44
498.398	720.44
498.615	709.44
498.832	726.44
499.049	729.44
499.267	741.44
499.484	752.44
499.701	802.44
499.918	798.44
500.135	799.44
500.352	827.44
500.569	846.44
500.786	838.44
501.003	880.44
501.22	837.44
501.437	829.44
501.654	798.44
501.871	805.44
