Data from 1989.PennyLincolnUp.Lamp.En5.5.200Scan.071819.P2_HRD10591_17-25-09-973.txt Node
Date: Thu Jul 18 17:25:09 EDT 2019
User: cochatt
Spectrometer: HR+D1059
Trigger mode: 1
Integration Time (sec): 1.000000E-1
Scans to average: 1
Electric dark correction enabled: true
Nonlinearity correction enabled: false
Boxcar width: 0
XAxis mode: Wavelengths
Number of Pixels in Spectrum: 2048
>>>>>Begin Spectral Data<<<<<
223.165	2.19
223.4	2.19
223.635	2.19
223.869	-26.81
224.104	-2.81
224.338	-11.81
224.573	-14.81
224.808	-2.81
225.042	-16.81
225.277	-12.81
225.511	-2.81
225.746	-2.81
225.98	3.19
226.215	-10.81
226.449	8.19
226.683	29.19
226.918	25.19
227.152	37.19
227.387	30.19
227.621	30.19
227.856	34.19
228.09	37.19
228.324	51.19
228.559	65.19
228.793	78.19
229.027	114.19
229.262	121.19
229.496	123.19
229.73	140.19
229.964	149.19
230.199	138.19
230.433	111.19
230.667	118.19
230.901	120.19
231.136	118.19
231.37	122.19
231.604	122.19
231.838	120.19
232.072	108.19
232.306	117.19
232.541	129.19
232.775	119.19
233.009	123.19
233.243	128.19
233.477	125.19
233.711	129.19
233.945	121.19
234.179	120.19
234.413	114.19
234.647	140.19
234.881	116.19
235.115	122.19
235.349	132.19
235.583	116.19
235.817	124.19
236.051	148.19
236.285	137.19
236.519	143.19
236.753	131.19
236.987	133.19
237.221	183.19
237.455	255.19
237.689	215.19
237.922	141.19
238.156	141.19
238.39	151.19
238.624	133.19
238.858	115.19
239.091	127.19
239.325	137.19
239.559	133.19
239.793	135.19
240.027	145.19
240.26	150.19
240.494	163.19
240.728	172.19
240.961	165.19
241.195	168.19
241.429	145.19
241.662	124.19
241.896	151.19
242.13	138.19
242.363	131.19
242.597	144.19
242.83	141.19
243.064	156.19
243.298	139.19
243.531	146.19
243.765	137.19
243.998	149.19
244.232	142.19
244.465	153.19
244.699	156.19
244.932	150.19
245.166	151.19
245.399	154.19
245.633	141.19
245.866	163.19
246.099	162.19
246.333	159.19
246.566	163.19
246.8	152.19
247.033	183.19
247.266	177.19
247.5	173.19
247.733	192.19
247.966	177.19
248.2	193.19
248.433	195.19
248.666	189.19
248.899	215.19
249.133	219.19
249.366	228.19
249.599	233.19
249.832	199.19
250.066	209.19
250.299	202.19
250.532	191.19
250.765	226.19
250.998	260.19
251.231	257.19
251.465	234.19
251.698	231.19
251.931	213.19
252.164	234.19
252.397	221.19
252.63	238.19
252.863	217.19
253.096	223.19
253.329	260.19
253.562	236.19
253.795	240.19
254.028	235.19
254.261	243.19
254.494	261.19
254.727	290.19
254.96	318.19
255.193	312.19
255.426	284.19
255.659	250.19
255.892	259.19
256.124	241.19
256.357	259.19
256.59	259.19
256.823	253.19
257.056	248.19
257.289	227.19
257.521	234.19
257.754	235.19
257.987	236.19
258.22	242.19
258.452	232.19
258.685	247.19
258.918	227.19
259.151	230.19
259.383	235.19
259.616	243.19
259.849	247.19
260.081	266.19
260.314	278.19
260.547	282.19
260.779	286.19
261.012	272.19
261.244	268.19
261.477	243.19
261.71	255.19
261.942	260.19
262.175	276.19
262.407	266.19
262.64	234.19
262.872	230.19
263.105	239.19
263.337	239.19
263.57	228.19
263.802	248.19
264.035	239.19
264.267	248.19
264.499	236.19
264.732	236.19
264.964	224.19
265.197	217.19
265.429	227.19
265.661	231.19
265.894	235.19
266.126	249.19
266.358	248.19
266.591	257.19
266.823	237.19
267.055	238.19
267.287	255.19
267.52	233.19
267.752	283.19
267.984	269.19
268.216	249.19
268.448	272.19
268.681	256.19
268.913	262.19
269.145	304.19
269.377	319.19
269.609	315.19
269.841	299.19
270.073	313.19
270.306	330.19
270.538	363.19
270.77	362.19
271.002	348.19
271.234	343.19
271.466	363.19
271.698	348.19
271.93	362.19
272.162	356.19
272.394	368.19
272.626	353.19
272.858	317.19
273.09	321.19
273.322	329.19
273.553	312.19
273.785	286.19
274.017	289.19
274.249	307.19
274.481	305.19
274.713	290.19
274.945	295.19
275.176	305.19
275.408	308.19
275.64	279.19
275.872	299.19
276.104	290.19
276.335	287.19
276.567	321.19
276.799	322.19
277.031	335.19
277.262	373.19
277.494	367.19
277.726	354.19
277.957	320.19
278.189	311.19
278.421	321.19
278.652	316.19
278.884	310.19
279.115	304.19
279.347	316.19
279.579	284.19
279.81	295.19
280.042	315.19
280.273	286.19
280.505	292.19
280.736	287.19
280.968	276.19
281.199	313.19
281.431	285.19
281.662	292.19
281.894	305.19
282.125	299.19
282.356	319.19
282.588	339.19
282.819	347.19
283.051	318.19
283.282	301.19
283.513	296.19
283.745	319.19
283.976	307.19
284.207	332.19
284.439	301.19
284.67	318.19
284.901	300.19
285.132	299.19
285.364	293.19
285.595	295.19
285.826	283.19
286.057	305.19
286.288	331.19
286.52	312.19
286.751	284.19
286.982	316.19
287.213	331.19
287.444	303.19
287.675	294.19
287.906	337.19
288.138	324.19
288.369	325.19
288.6	356.19
288.831	328.19
289.062	349.19
289.293	324.19
289.524	326.19
289.755	317.19
289.986	316.19
290.217	309.19
290.448	323.19
290.679	322.19
290.91	335.19
291.141	317.19
291.371	329.19
291.602	324.19
291.833	316.19
292.064	314.19
292.295	320.19
292.526	293.19
292.757	285.19
292.987	325.19
293.218	330.19
293.449	328.19
293.68	332.19
293.91	322.19
294.141	307.19
294.372	295.19
294.603	317.19
294.833	326.19
295.064	301.19
295.295	307.19
295.525	311.19
295.756	317.19
295.987	353.19
296.217	361.19
296.448	350.19
296.679	347.19
296.909	299.19
297.14	328.19
297.37	331.19
297.601	338.19
297.831	322.19
298.062	341.19
298.292	330.19
298.523	342.19
298.753	339.19
298.984	341.19
299.214	339.19
299.445	336.19
299.675	339.19
299.905	340.19
300.136	355.19
300.366	324.19
300.597	348.19
300.827	325.19
301.057	349.19
301.288	360.19
301.518	363.19
301.748	360.19
301.979	358.19
302.209	354.19
302.439	354.19
302.669	345.19
302.9	349.19
303.13	365.19
303.36	368.19
303.59	361.19
303.82	369.19
304.051	363.19
304.281	342.19
304.511	371.19
304.741	353.19
304.971	363.19
305.201	361.19
305.431	344.19
305.661	341.19
305.891	338.19
306.121	354.19
306.352	361.19
306.582	368.19
306.812	362.19
307.042	347.19
307.272	360.19
307.502	353.19
307.731	361.19
307.961	352.19
308.191	376.19
308.421	373.19
308.651	376.19
308.881	363.19
309.111	356.19
309.341	374.19
309.571	389.19
309.8	396.19
310.03	397.19
310.26	415.19
310.49	423.19
310.72	408.19
310.949	452.19
311.179	455.19
311.409	432.19
311.639	404.19
311.868	398.19
312.098	417.19
312.328	413.19
312.557	442.19
312.787	440.19
313.017	459.19
313.246	415.19
313.476	411.19
313.706	417.19
313.935	410.19
314.165	431.19
314.394	444.19
314.624	445.19
314.853	407.19
315.083	416.19
315.312	395.19
315.542	421.19
315.771	415.19
316.001	406.19
316.23	400.19
316.46	415.19
316.689	425.19
316.919	421.19
317.148	434.19
317.377	439.19
317.607	414.19
317.836	416.19
318.065	412.19
318.295	403.19
318.524	408.19
318.753	435.19
318.983	419.19
319.212	411.19
319.441	426.19
319.67	423.19
319.9	437.19
320.129	415.19
320.358	412.19
320.587	446.19
320.816	434.19
321.046	445.19
321.275	455.19
321.504	433.19
321.733	462.19
321.962	452.19
322.191	481.19
322.42	464.19
322.649	494.19
322.878	492.19
323.108	534.19
323.337	547.19
323.566	565.19
323.795	612.19
324.024	641.19
324.253	811.19
324.482	1154.19
324.71	1788.19
324.939	2531.19
325.168	2239.19
325.397	1163.19
325.626	777.19
325.855	651.19
326.084	586.19
326.313	573.19
326.542	590.19
326.77	663.19
326.999	769.19
327.228	1047.19
327.457	1571.19
327.686	1975.19
327.914	1311.19
328.143	863.19
328.372	711.19
328.6	648.19
328.829	625.19
329.058	656.19
329.287	661.19
329.515	619.19
329.744	563.19
329.972	555.19
330.201	609.19
330.43	645.19
330.658	668.19
330.887	713.19
331.115	695.19
331.344	610.19
331.572	558.19
331.801	542.19
332.03	542.19
332.258	522.19
332.486	488.19
332.715	491.19
332.943	498.19
333.172	490.19
333.4	489.19
333.629	536.19
333.857	501.19
334.085	522.19
334.314	539.19
334.542	547.19
334.771	559.19
334.999	537.19
335.227	497.19
335.455	504.19
335.684	498.19
335.912	479.19
336.14	496.19
336.369	469.19
336.597	479.19
336.825	499.19
337.053	498.19
337.281	454.19
337.51	456.19
337.738	467.19
337.966	491.19
338.194	488.19
338.422	477.19
338.65	454.19
338.878	469.19
339.106	471.19
339.334	473.19
339.562	473.19
339.79	448.19
340.018	488.19
340.246	469.19
340.474	480.19
340.702	468.19
340.93	470.19
341.158	453.19
341.386	478.19
341.614	480.19
341.842	456.19
342.07	442.19
342.298	433.19
342.526	458.19
342.754	440.19
342.981	420.19
343.209	439.19
343.437	461.19
343.665	449.19
343.893	454.19
344.12	464.19
344.348	471.19
344.576	443.19
344.804	469.19
345.031	457.19
345.259	488.19
345.487	475.19
345.714	439.19
345.942	469.19
346.17	450.19
346.397	460.19
346.625	460.19
346.853	433.19
347.08	442.19
347.308	446.19
347.535	447.19
347.763	486.19
347.99	447.19
348.218	447.19
348.445	422.19
348.673	460.19
348.9	447.19
349.128	452.19
349.355	421.19
349.583	439.19
349.81	436.19
350.037	443.19
350.265	440.19
350.492	441.19
350.72	422.19
350.947	433.19
351.174	440.19
351.402	461.19
351.629	453.19
351.856	456.19
352.083	448.19
352.311	452.19
352.538	468.19
352.765	460.19
352.992	443.19
353.22	447.19
353.447	440.19
353.674	431.19
353.901	415.19
354.128	427.19
354.355	392.19
354.583	425.19
354.81	421.19
355.037	427.19
355.264	399.19
355.491	393.19
355.718	412.19
355.945	400.19
356.172	404.19
356.399	415.19
356.626	401.19
356.853	405.19
357.08	383.19
357.307	415.19
357.534	387.19
357.761	402.19
357.988	419.19
358.215	405.19
358.441	391.19
358.668	409.19
358.895	410.19
359.122	419.19
359.349	447.19
359.576	444.19
359.802	467.19
360.029	480.19
360.256	511.19
360.483	491.19
360.709	458.19
360.936	427.19
361.163	439.19
361.39	448.19
361.616	427.19
361.843	431.19
362.07	428.19
362.296	435.19
362.523	449.19
362.749	429.19
362.976	412.19
363.203	420.19
363.429	396.19
363.656	403.19
363.882	415.19
364.109	420.19
364.335	411.19
364.562	425.19
364.788	419.19
365.015	404.19
365.241	413.19
365.468	436.19
365.694	429.19
365.92	425.19
366.147	417.19
366.373	419.19
366.599	411.19
366.826	395.19
367.052	408.19
367.278	402.19
367.505	403.19
367.731	399.19
367.957	419.19
368.184	417.19
368.41	417.19
368.636	443.19
368.862	427.19
369.089	428.19
369.315	409.19
369.541	399.19
369.767	386.19
369.993	393.19
370.219	412.19
370.445	417.19
370.672	409.19
370.898	413.19
371.124	382.19
371.35	394.19
371.576	405.19
371.802	395.19
372.028	394.19
372.254	392.19
372.48	397.19
372.706	396.19
372.932	378.19
373.158	394.19
373.384	406.19
373.61	410.19
373.835	398.19
374.061	407.19
374.287	403.19
374.513	404.19
374.739	416.19
374.965	428.19
375.191	415.19
375.416	412.19
375.642	396.19
375.868	401.19
376.094	408.19
376.319	394.19
376.545	406.19
376.771	358.19
376.997	379.19
377.222	405.19
377.448	395.19
377.674	392.19
377.899	411.19
378.125	402.19
378.35	395.19
378.576	388.19
378.802	383.19
379.027	380.19
379.253	386.19
379.478	389.19
379.704	416.19
379.929	404.19
380.155	387.19
380.38	397.19
380.606	403.19
380.831	404.19
381.057	410.19
381.282	401.19
381.507	396.19
381.733	393.19
381.958	363.19
382.184	389.19
382.409	383.19
382.634	402.19
382.86	391.19
383.085	392.19
383.31	417.19
383.535	399.19
383.761	412.19
383.986	415.19
384.211	405.19
384.436	409.19
384.662	397.19
384.887	424.19
385.112	416.19
385.337	415.19
385.562	414.19
385.787	447.19
386.013	412.19
386.238	422.19
386.463	440.19
386.688	440.19
386.913	428.19
387.138	418.19
387.363	412.19
387.588	395.19
387.813	428.19
388.038	439.19
388.263	425.19
388.488	425.19
388.713	427.19
388.938	412.19
389.163	423.19
389.387	432.19
389.612	432.19
389.837	419.19
390.062	405.19
390.287	441.19
390.512	403.19
390.736	423.19
390.961	416.19
391.186	418.19
391.411	412.19
391.636	438.19
391.86	433.19
392.085	432.19
392.31	416.19
392.534	436.19
392.759	432.19
392.984	423.19
393.208	421.19
393.433	410.19
393.658	398.19
393.882	415.19
394.107	417.19
394.331	422.19
394.556	429.19
394.78	419.19
395.005	436.19
395.229	421.19
395.454	426.19
395.678	440.19
395.903	461.19
396.127	469.19
396.352	469.19
396.576	449.19
396.801	440.19
397.025	455.19
397.249	436.19
397.474	451.19
397.698	449.19
397.922	455.19
398.147	474.19
398.371	488.19
398.595	452.19
398.82	464.19
399.044	476.19
399.268	480.19
399.492	514.19
399.717	520.19
399.941	540.19
400.165	577.19
400.389	588.19
400.613	520.19
400.837	500.19
401.062	472.19
401.286	476.19
401.51	467.19
401.734	483.19
401.958	468.19
402.182	496.19
402.406	475.19
402.63	468.19
402.854	486.19
403.078	474.19
403.302	481.19
403.526	515.19
403.75	497.19
403.974	500.19
404.198	488.19
404.422	495.19
404.645	500.19
404.869	512.19
405.093	503.19
405.317	572.19
405.541	625.19
405.765	556.19
405.988	513.19
406.212	535.19
406.436	553.19
406.66	552.19
406.883	547.19
407.107	559.19
407.331	610.19
407.555	672.19
407.778	653.19
408.002	595.19
408.226	554.19
408.449	545.19
408.673	553.19
408.896	584.19
409.12	608.19
409.344	603.19
409.567	509.19
409.791	496.19
410.014	490.19
410.238	504.19
410.461	495.19
410.685	499.19
410.908	529.19
411.132	569.19
411.355	585.19
411.578	550.19
411.802	531.19
412.025	489.19
412.249	501.19
412.472	501.19
412.695	527.19
412.919	530.19
413.142	499.19
413.365	469.19
413.589	468.19
413.812	451.19
414.035	470.19
414.258	458.19
414.482	464.19
414.705	461.19
414.928	458.19
415.151	456.19
415.374	457.19
415.597	446.19
415.821	471.19
416.044	467.19
416.267	465.19
416.49	489.19
416.713	462.19
416.936	444.19
417.159	456.19
417.382	475.19
417.605	493.19
417.828	479.19
418.051	467.19
418.274	481.19
418.497	476.19
418.72	468.19
418.943	478.19
419.166	486.19
419.389	497.19
419.611	491.19
419.834	505.19
420.057	483.19
420.28	497.19
420.503	488.19
420.726	482.19
420.948	509.19
421.171	567.19
421.394	597.19
421.617	531.19
421.839	488.19
422.062	489.19
422.285	506.19
422.507	551.19
422.73	628.19
422.953	634.19
423.175	543.19
423.398	519.19
423.621	501.19
423.843	537.19
424.066	545.19
424.288	526.19
424.511	549.19
424.733	619.19
424.956	678.19
425.178	683.19
425.401	648.19
425.623	677.19
425.846	589.19
426.068	535.19
426.291	543.19
426.513	564.19
426.735	574.19
426.958	583.19
427.18	683.19
427.402	789.19
427.625	873.19
427.847	762.19
428.069	677.19
428.292	603.19
428.514	533.19
428.736	517.19
428.958	522.19
429.181	492.19
429.403	486.19
429.625	486.19
429.847	546.19
430.069	635.19
430.292	607.19
430.514	532.19
430.736	489.19
430.958	487.19
431.18	458.19
431.402	478.19
431.624	458.19
431.846	456.19
432.068	456.19
432.29	465.19
432.512	484.19
432.734	476.19
432.956	484.19
433.178	504.19
433.4	466.19
433.622	459.19
433.844	466.19
434.066	465.19
434.287	465.19
434.509	470.19
434.731	466.19
434.953	480.19
435.175	479.19
435.397	513.19
435.618	561.19
435.84	590.19
436.062	680.19
436.284	731.19
436.505	601.19
436.727	554.19
436.949	520.19
437.17	515.19
437.392	473.19
437.614	512.19
437.835	561.19
438.057	662.19
438.278	737.19
438.5	739.19
438.721	813.19
438.943	779.19
439.165	633.19
439.386	555.19
439.608	571.19
439.829	564.19
440.05	602.19
440.272	647.19
440.493	573.19
440.715	533.19
440.936	495.19
441.158	504.19
441.379	502.19
441.6	519.19
441.822	534.19
442.043	569.19
442.264	668.19
442.486	712.19
442.707	595.19
442.928	563.19
443.149	562.19
443.371	587.19
443.592	657.19
443.813	748.19
444.034	797.19
444.255	645.19
444.476	571.19
444.698	557.19
444.919	541.19
445.14	633.19
445.361	596.19
445.582	583.19
445.803	647.19
446.024	755.19
446.245	781.19
446.466	695.19
446.687	581.19
446.908	554.19
447.129	495.19
447.35	520.19
447.571	515.19
447.792	501.19
448.013	484.19
448.234	509.19
448.455	572.19
448.675	695.19
448.896	773.19
449.117	692.19
449.338	667.19
449.559	773.19
449.779	844.19
450	700.19
450.221	595.19
450.442	543.19
450.662	493.19
450.883	501.19
451.104	519.19
451.324	504.19
451.545	470.19
451.766	471.19
451.986	456.19
452.207	444.19
452.428	447.19
452.648	447.19
452.869	454.19
453.089	469.19
453.31	486.19
453.53	465.19
453.751	464.19
453.971	457.19
454.192	457.19
454.412	456.19
454.633	445.19
454.853	450.19
455.073	444.19
455.294	471.19
455.514	529.19
455.734	515.19
455.955	435.19
456.175	419.19
456.395	426.19
456.616	417.19
456.836	432.19
457.056	421.19
457.276	405.19
457.497	432.19
457.717	415.19
457.937	405.19
458.157	421.19
458.377	425.19
458.598	449.19
458.818	524.19
459.038	613.19
459.258	618.19
459.478	510.19
459.698	473.19
459.918	469.19
460.138	454.19
460.358	457.19
460.578	460.19
460.798	461.19
461.018	456.19
461.238	457.19
461.458	452.19
461.678	451.19
461.898	455.19
462.118	458.19
462.338	469.19
462.558	466.19
462.777	469.19
462.997	490.19
463.217	491.19
463.437	506.19
463.657	488.19
463.876	490.19
464.096	483.19
464.316	485.19
464.536	492.19
464.755	506.19
464.975	465.19
465.195	541.19
465.414	632.19
465.634	569.19
465.854	513.19
466.073	490.19
466.293	439.19
466.512	445.19
466.732	435.19
466.951	437.19
467.171	436.19
467.391	464.19
467.61	457.19
467.829	470.19
468.049	460.19
468.268	433.19
468.488	434.19
468.707	441.19
468.927	437.19
469.146	443.19
469.365	434.19
469.585	426.19
469.804	461.19
470.023	451.19
470.243	471.19
470.462	482.19
470.681	494.19
470.901	456.19
471.12	480.19
471.339	462.19
471.558	452.19
471.777	468.19
471.997	450.19
472.216	433.19
472.435	490.19
472.654	451.19
472.873	456.19
473.092	433.19
473.311	457.19
473.53	447.19
473.749	441.19
473.968	503.19
474.187	607.19
474.406	624.19
474.625	530.19
474.844	474.19
475.063	465.19
475.282	455.19
475.501	467.19
475.72	480.19
475.939	453.19
476.158	456.19
476.377	481.19
476.596	475.19
476.814	460.19
477.033	482.19
477.252	460.19
477.471	473.19
477.69	472.19
477.908	483.19
478.127	487.19
478.346	479.19
478.564	495.19
478.783	490.19
479.002	510.19
479.22	525.19
479.439	510.19
479.658	544.19
479.876	585.19
480.095	547.19
480.313	585.19
480.532	545.19
480.751	557.19
480.969	543.19
481.188	603.19
481.406	629.19
481.624	571.19
481.843	571.19
482.061	538.19
482.28	514.19
482.498	536.19
482.717	536.19
482.935	512.19
483.153	537.19
483.372	544.19
483.59	532.19
483.808	535.19
484.027	517.19
484.245	524.19
484.463	531.19
484.681	520.19
484.9	553.19
485.118	549.19
485.336	536.19
485.554	553.19
485.772	562.19
485.99	563.19
486.209	563.19
486.427	547.19
486.645	573.19
486.863	580.19
487.081	595.19
487.299	581.19
487.517	582.19
487.735	565.19
487.953	575.19
488.171	554.19
488.389	579.19
488.607	581.19
488.825	572.19
489.043	594.19
489.261	589.19
489.479	589.19
489.696	585.19
489.914	585.19
490.132	594.19
490.35	602.19
490.568	601.19
490.786	610.19
491.003	616.19
491.221	619.19
491.439	633.19
491.657	633.19
491.874	630.19
492.092	664.19
492.31	666.19
492.527	657.19
492.745	682.19
492.963	658.19
493.18	659.19
493.398	699.19
493.615	680.19
493.833	703.19
494.05	668.19
494.268	675.19
494.485	677.19
494.703	670.19
494.92	668.19
495.138	690.19
495.355	685.19
495.573	712.19
495.79	695.19
496.008	679.19
496.225	688.19
496.442	689.19
496.66	680.19
496.877	664.19
497.094	679.19
497.312	702.19
497.529	694.19
497.746	702.19
497.963	716.19
498.181	751.19
498.398	747.19
498.615	743.19
498.832	748.19
499.049	739.19
499.267	760.19
499.484	788.19
499.701	789.19
499.918	847.19
500.135	811.19
500.352	878.19
500.569	860.19
500.786	882.19
501.003	893.19
501.22	872.19
501.437	838.19
501.654	852.19
501.871	843.19
