Data from 1989.PennyLincolnUp.Lamp.En5.5.200Scan.071819.P2_HRD10591_17-25-53-973.txt Node
Date: Thu Jul 18 17:25:53 EDT 2019
User: cochatt
Spectrometer: HR+D1059
Trigger mode: 1
Integration Time (sec): 1.000000E-1
Scans to average: 1
Electric dark correction enabled: true
Nonlinearity correction enabled: false
Boxcar width: 0
XAxis mode: Wavelengths
Number of Pixels in Spectrum: 2048
>>>>>Begin Spectral Data<<<<<
223.165	-10.44
223.4	-10.44
223.635	-10.44
223.869	-11.44
224.104	-19.44
224.338	-5.44
224.573	-21.44
224.808	-9.44
225.042	-10.44
225.277	-5.44
225.511	-2.44
225.746	-8.44
225.98	4.56
226.215	8.56
226.449	16.56
226.683	20.56
226.918	19.56
227.152	34.56
227.387	14.56
227.621	38.56
227.856	33.56
228.09	58.56
228.324	43.56
228.559	66.56
228.793	62.56
229.027	87.56
229.262	108.56
229.496	112.56
229.73	157.56
229.964	165.56
230.199	138.56
230.433	120.56
230.667	107.56
230.901	113.56
231.136	118.56
231.37	108.56
231.604	106.56
231.838	114.56
232.072	114.56
232.306	112.56
232.541	113.56
232.775	116.56
233.009	115.56
233.243	105.56
233.477	110.56
233.711	114.56
233.945	109.56
234.179	112.56
234.413	106.56
234.647	112.56
234.881	109.56
235.115	117.56
235.349	111.56
235.583	123.56
235.817	123.56
236.051	115.56
236.285	137.56
236.519	132.56
236.753	130.56
236.987	142.56
237.221	192.56
237.455	255.56
237.689	203.56
237.922	158.56
238.156	139.56
238.39	122.56
238.624	138.56
238.858	142.56
239.091	124.56
239.325	142.56
239.559	121.56
239.793	150.56
240.027	106.56
240.26	152.56
240.494	157.56
240.728	176.56
240.961	160.56
241.195	170.56
241.429	148.56
241.662	132.56
241.896	140.56
242.13	137.56
242.363	121.56
242.597	130.56
242.83	132.56
243.064	143.56
243.298	155.56
243.531	149.56
243.765	149.56
243.998	153.56
244.232	167.56
244.465	147.56
244.699	155.56
244.932	145.56
245.166	155.56
245.399	148.56
245.633	148.56
245.866	153.56
246.099	172.56
246.333	168.56
246.566	165.56
246.8	158.56
247.033	170.56
247.266	163.56
247.5	154.56
247.733	174.56
247.966	180.56
248.2	194.56
248.433	197.56
248.666	171.56
248.899	204.56
249.133	222.56
249.366	218.56
249.599	223.56
249.832	203.56
250.066	204.56
250.299	197.56
250.532	205.56
250.765	232.56
250.998	256.56
251.231	258.56
251.465	239.56
251.698	225.56
251.931	212.56
252.164	210.56
252.397	218.56
252.63	213.56
252.863	228.56
253.096	235.56
253.329	253.56
253.562	241.56
253.795	229.56
254.028	258.56
254.261	236.56
254.494	240.56
254.727	296.56
254.96	310.56
255.193	322.56
255.426	274.56
255.659	264.56
255.892	269.56
256.124	257.56
256.357	273.56
256.59	278.56
256.823	242.56
257.056	244.56
257.289	242.56
257.521	234.56
257.754	249.56
257.987	234.56
258.22	226.56
258.452	227.56
258.685	219.56
258.918	223.56
259.151	231.56
259.383	233.56
259.616	257.56
259.849	239.56
260.081	258.56
260.314	285.56
260.547	288.56
260.779	263.56
261.012	263.56
261.244	236.56
261.477	243.56
261.71	235.56
261.942	243.56
262.175	252.56
262.407	257.56
262.64	256.56
262.872	226.56
263.105	235.56
263.337	236.56
263.57	225.56
263.802	236.56
264.035	212.56
264.267	224.56
264.499	224.56
264.732	235.56
264.964	229.56
265.197	221.56
265.429	242.56
265.661	246.56
265.894	226.56
266.126	232.56
266.358	234.56
266.591	249.56
266.823	268.56
267.055	254.56
267.287	249.56
267.52	226.56
267.752	247.56
267.984	248.56
268.216	251.56
268.448	253.56
268.681	261.56
268.913	268.56
269.145	292.56
269.377	308.56
269.609	340.56
269.841	315.56
270.073	320.56
270.306	307.56
270.538	348.56
270.77	362.56
271.002	332.56
271.234	324.56
271.466	345.56
271.698	333.56
271.93	356.56
272.162	360.56
272.394	345.56
272.626	335.56
272.858	322.56
273.09	292.56
273.322	309.56
273.553	310.56
273.785	294.56
274.017	283.56
274.249	282.56
274.481	293.56
274.713	278.56
274.945	286.56
275.176	304.56
275.408	279.56
275.64	294.56
275.872	286.56
276.104	280.56
276.335	291.56
276.567	308.56
276.799	311.56
277.031	311.56
277.262	340.56
277.494	350.56
277.726	334.56
277.957	314.56
278.189	330.56
278.421	309.56
278.652	311.56
278.884	295.56
279.115	296.56
279.347	293.56
279.579	290.56
279.81	297.56
280.042	292.56
280.273	294.56
280.505	292.56
280.736	276.56
280.968	287.56
281.199	294.56
281.431	288.56
281.662	290.56
281.894	281.56
282.125	269.56
282.356	302.56
282.588	338.56
282.819	343.56
283.051	308.56
283.282	307.56
283.513	275.56
283.745	311.56
283.976	310.56
284.207	304.56
284.439	315.56
284.67	308.56
284.901	308.56
285.132	302.56
285.364	284.56
285.595	295.56
285.826	299.56
286.057	306.56
286.288	296.56
286.52	301.56
286.751	308.56
286.982	312.56
287.213	278.56
287.444	310.56
287.675	317.56
287.906	323.56
288.138	320.56
288.369	320.56
288.6	344.56
288.831	329.56
289.062	311.56
289.293	311.56
289.524	314.56
289.755	316.56
289.986	337.56
290.217	313.56
290.448	281.56
290.679	300.56
290.91	304.56
291.141	289.56
291.371	295.56
291.602	313.56
291.833	301.56
292.064	319.56
292.295	322.56
292.526	324.56
292.757	317.56
292.987	301.56
293.218	321.56
293.449	318.56
293.68	304.56
293.91	320.56
294.141	317.56
294.372	298.56
294.603	315.56
294.833	318.56
295.064	306.56
295.295	297.56
295.525	322.56
295.756	324.56
295.987	313.56
296.217	348.56
296.448	368.56
296.679	316.56
296.909	298.56
297.14	314.56
297.37	311.56
297.601	329.56
297.831	326.56
298.062	316.56
298.292	306.56
298.523	329.56
298.753	322.56
298.984	335.56
299.214	331.56
299.445	327.56
299.675	325.56
299.905	339.56
300.136	342.56
300.366	324.56
300.597	332.56
300.827	328.56
301.057	333.56
301.288	359.56
301.518	365.56
301.748	352.56
301.979	333.56
302.209	343.56
302.439	361.56
302.669	339.56
302.9	341.56
303.13	347.56
303.36	346.56
303.59	346.56
303.82	353.56
304.051	363.56
304.281	349.56
304.511	359.56
304.741	345.56
304.971	359.56
305.201	350.56
305.431	363.56
305.661	358.56
305.891	349.56
306.121	346.56
306.352	357.56
306.582	341.56
306.812	352.56
307.042	362.56
307.272	368.56
307.502	353.56
307.731	361.56
307.961	360.56
308.191	363.56
308.421	345.56
308.651	360.56
308.881	348.56
309.111	361.56
309.341	363.56
309.571	390.56
309.8	392.56
310.03	373.56
310.26	405.56
310.49	404.56
310.72	443.56
310.949	432.56
311.179	446.56
311.409	422.56
311.639	414.56
311.868	408.56
312.098	395.56
312.328	410.56
312.557	447.56
312.787	448.56
313.017	435.56
313.246	433.56
313.476	402.56
313.706	404.56
313.935	404.56
314.165	421.56
314.394	424.56
314.624	418.56
314.853	439.56
315.083	405.56
315.312	421.56
315.542	379.56
315.771	411.56
316.001	424.56
316.23	412.56
316.46	393.56
316.689	402.56
316.919	418.56
317.148	401.56
317.377	420.56
317.607	426.56
317.836	410.56
318.065	408.56
318.295	398.56
318.524	409.56
318.753	413.56
318.983	398.56
319.212	390.56
319.441	399.56
319.67	412.56
319.9	428.56
320.129	416.56
320.358	424.56
320.587	426.56
320.816	411.56
321.046	427.56
321.275	436.56
321.504	438.56
321.733	448.56
321.962	424.56
322.191	450.56
322.42	476.56
322.649	467.56
322.878	499.56
323.108	500.56
323.337	549.56
323.566	565.56
323.795	587.56
324.024	664.56
324.253	798.56
324.482	1167.56
324.71	1763.56
324.939	2537.56
325.168	2255.56
325.397	1157.56
325.626	755.56
325.855	653.56
326.084	578.56
326.313	566.56
326.542	577.56
326.77	620.56
326.999	739.56
327.228	1051.56
327.457	1571.56
327.686	1940.56
327.914	1302.56
328.143	833.56
328.372	723.56
328.6	670.56
328.829	649.56
329.058	654.56
329.287	674.56
329.515	626.56
329.744	582.56
329.972	588.56
330.201	604.56
330.43	667.56
330.658	702.56
330.887	710.56
331.115	662.56
331.344	582.56
331.572	554.56
331.801	545.56
332.03	543.56
332.258	504.56
332.486	504.56
332.715	486.56
332.943	514.56
333.172	490.56
333.4	485.56
333.629	492.56
333.857	523.56
334.085	560.56
334.314	600.56
334.542	632.56
334.771	625.56
334.999	587.56
335.227	552.56
335.455	508.56
335.684	488.56
335.912	493.56
336.14	468.56
336.369	469.56
336.597	489.56
336.825	492.56
337.053	455.56
337.281	472.56
337.51	466.56
337.738	462.56
337.966	458.56
338.194	491.56
338.422	474.56
338.65	465.56
338.878	425.56
339.106	448.56
339.334	446.56
339.562	450.56
339.79	445.56
340.018	463.56
340.246	464.56
340.474	461.56
340.702	458.56
340.93	447.56
341.158	468.56
341.386	442.56
341.614	443.56
341.842	453.56
342.07	442.56
342.298	447.56
342.526	424.56
342.754	446.56
342.981	438.56
343.209	423.56
343.437	429.56
343.665	446.56
343.893	424.56
344.12	443.56
344.348	423.56
344.576	439.56
344.804	453.56
345.031	463.56
345.259	476.56
345.487	457.56
345.714	448.56
345.942	436.56
346.17	451.56
346.397	456.56
346.625	437.56
346.853	428.56
347.08	426.56
347.308	441.56
347.535	442.56
347.763	452.56
347.99	435.56
348.218	433.56
348.445	425.56
348.673	438.56
348.9	441.56
349.128	424.56
349.355	417.56
349.583	397.56
349.81	437.56
350.037	422.56
350.265	428.56
350.492	422.56
350.72	427.56
350.947	421.56
351.174	438.56
351.402	451.56
351.629	453.56
351.856	446.56
352.083	450.56
352.311	446.56
352.538	438.56
352.765	452.56
352.992	440.56
353.22	444.56
353.447	424.56
353.674	400.56
353.901	411.56
354.128	393.56
354.355	418.56
354.583	396.56
354.81	397.56
355.037	407.56
355.264	397.56
355.491	386.56
355.718	386.56
355.945	386.56
356.172	408.56
356.399	394.56
356.626	404.56
356.853	402.56
357.08	392.56
357.307	388.56
357.534	390.56
357.761	411.56
357.988	402.56
358.215	381.56
358.441	387.56
358.668	398.56
358.895	428.56
359.122	416.56
359.349	415.56
359.576	415.56
359.802	455.56
360.029	473.56
360.256	486.56
360.483	467.56
360.709	444.56
360.936	412.56
361.163	413.56
361.39	425.56
361.616	417.56
361.843	426.56
362.07	409.56
362.296	413.56
362.523	406.56
362.749	420.56
362.976	412.56
363.203	430.56
363.429	392.56
363.656	397.56
363.882	403.56
364.109	403.56
364.335	403.56
364.562	404.56
364.788	399.56
365.015	396.56
365.241	399.56
365.468	412.56
365.694	413.56
365.92	402.56
366.147	398.56
366.373	404.56
366.599	392.56
366.826	408.56
367.052	396.56
367.278	390.56
367.505	399.56
367.731	412.56
367.957	398.56
368.184	393.56
368.41	423.56
368.636	425.56
368.862	429.56
369.089	400.56
369.315	420.56
369.541	382.56
369.767	392.56
369.993	376.56
370.219	396.56
370.445	406.56
370.672	388.56
370.898	379.56
371.124	378.56
371.35	396.56
371.576	396.56
371.802	378.56
372.028	384.56
372.254	379.56
372.48	409.56
372.706	416.56
372.932	386.56
373.158	404.56
373.384	397.56
373.61	392.56
373.835	404.56
374.061	387.56
374.287	386.56
374.513	390.56
374.739	404.56
374.965	386.56
375.191	398.56
375.416	406.56
375.642	394.56
375.868	388.56
376.094	410.56
376.319	398.56
376.545	389.56
376.771	383.56
376.997	373.56
377.222	379.56
377.448	385.56
377.674	384.56
377.899	362.56
378.125	382.56
378.35	394.56
378.576	387.56
378.802	398.56
379.027	372.56
379.253	358.56
379.478	386.56
379.704	380.56
379.929	382.56
380.155	388.56
380.38	388.56
380.606	396.56
380.831	388.56
381.057	388.56
381.282	382.56
381.507	382.56
381.733	387.56
381.958	386.56
382.184	376.56
382.409	390.56
382.634	373.56
382.86	379.56
383.085	385.56
383.31	367.56
383.535	386.56
383.761	404.56
383.986	402.56
384.211	412.56
384.436	399.56
384.662	388.56
384.887	376.56
385.112	374.56
385.337	413.56
385.562	416.56
385.787	392.56
386.013	430.56
386.238	423.56
386.463	406.56
386.688	411.56
386.913	404.56
387.138	403.56
387.363	418.56
387.588	420.56
387.813	399.56
388.038	390.56
388.263	422.56
388.488	411.56
388.713	396.56
388.938	385.56
389.163	403.56
389.387	406.56
389.612	393.56
389.837	388.56
390.062	417.56
390.287	411.56
390.512	397.56
390.736	404.56
390.961	414.56
391.186	427.56
391.411	409.56
391.636	416.56
391.86	428.56
392.085	428.56
392.31	401.56
392.534	419.56
392.759	405.56
392.984	407.56
393.208	396.56
393.433	415.56
393.658	413.56
393.882	392.56
394.107	414.56
394.331	399.56
394.556	393.56
394.78	402.56
395.005	399.56
395.229	412.56
395.454	419.56
395.678	432.56
395.903	441.56
396.127	444.56
396.352	449.56
396.576	422.56
396.801	418.56
397.025	423.56
397.249	414.56
397.474	451.56
397.698	417.56
397.922	442.56
398.147	453.56
398.371	442.56
398.595	445.56
398.82	466.56
399.044	457.56
399.268	457.56
399.492	487.56
399.717	506.56
399.941	551.56
400.165	544.56
400.389	574.56
400.613	518.56
400.837	480.56
401.062	463.56
401.286	441.56
401.51	448.56
401.734	457.56
401.958	474.56
402.182	468.56
402.406	493.56
402.63	490.56
402.854	461.56
403.078	457.56
403.302	487.56
403.526	469.56
403.75	492.56
403.974	486.56
404.198	477.56
404.422	456.56
404.645	480.56
404.869	489.56
405.093	515.56
405.317	562.56
405.541	624.56
405.765	533.56
405.988	513.56
406.212	519.56
406.436	549.56
406.66	544.56
406.883	548.56
407.107	553.56
407.331	573.56
407.555	644.56
407.778	653.56
408.002	600.56
408.226	537.56
408.449	524.56
408.673	516.56
408.896	525.56
409.12	566.56
409.344	558.56
409.567	489.56
409.791	474.56
410.014	477.56
410.238	458.56
410.461	479.56
410.685	500.56
410.908	498.56
411.132	549.56
411.355	550.56
411.578	531.56
411.802	506.56
412.025	476.56
412.249	488.56
412.472	510.56
412.695	561.56
412.919	554.56
413.142	512.56
413.365	488.56
413.589	465.56
413.812	476.56
414.035	455.56
414.258	468.56
414.482	455.56
414.705	449.56
414.928	438.56
415.151	446.56
415.374	436.56
415.597	433.56
415.821	442.56
416.044	448.56
416.267	449.56
416.49	468.56
416.713	442.56
416.936	451.56
417.159	431.56
417.382	443.56
417.605	438.56
417.828	455.56
418.051	488.56
418.274	458.56
418.497	459.56
418.72	448.56
418.943	444.56
419.166	470.56
419.389	473.56
419.611	472.56
419.834	492.56
420.057	491.56
420.28	480.56
420.503	483.56
420.726	501.56
420.948	507.56
421.171	549.56
421.394	578.56
421.617	503.56
421.839	458.56
422.062	511.56
422.285	486.56
422.507	542.56
422.73	638.56
422.953	598.56
423.175	532.56
423.398	501.56
423.621	514.56
423.843	522.56
424.066	526.56
424.288	520.56
424.511	540.56
424.733	593.56
424.956	671.56
425.178	647.56
425.401	622.56
425.623	653.56
425.846	557.56
426.068	523.56
426.291	518.56
426.513	527.56
426.735	544.56
426.958	572.56
427.18	650.56
427.402	781.56
427.625	881.56
427.847	792.56
428.069	687.56
428.292	618.56
428.514	520.56
428.736	518.56
428.958	512.56
429.181	493.56
429.403	491.56
429.625	510.56
429.847	520.56
430.069	581.56
430.292	574.56
430.514	505.56
430.736	491.56
430.958	445.56
431.18	450.56
431.402	459.56
431.624	443.56
431.846	442.56
432.068	436.56
432.29	448.56
432.512	447.56
432.734	451.56
432.956	448.56
433.178	442.56
433.4	467.56
433.622	445.56
433.844	434.56
434.066	445.56
434.287	448.56
434.509	435.56
434.731	449.56
434.953	472.56
435.175	489.56
435.397	481.56
435.618	526.56
435.84	548.56
436.062	664.56
436.284	705.56
436.505	584.56
436.727	533.56
436.949	482.56
437.17	494.56
437.392	475.56
437.614	516.56
437.835	550.56
438.057	641.56
438.278	720.56
438.5	745.56
438.721	784.56
438.943	752.56
439.165	610.56
439.386	548.56
439.608	518.56
439.829	530.56
440.05	564.56
440.272	602.56
440.493	573.56
440.715	512.56
440.936	485.56
441.158	476.56
441.379	477.56
441.6	483.56
441.822	513.56
442.043	560.56
442.264	641.56
442.486	696.56
442.707	593.56
442.928	533.56
443.149	554.56
443.371	562.56
443.592	625.56
443.813	700.56
444.034	740.56
444.255	610.56
444.476	530.56
444.698	514.56
444.919	513.56
445.14	643.56
445.361	564.56
445.582	557.56
445.803	622.56
446.024	740.56
446.245	740.56
446.466	710.56
446.687	584.56
446.908	537.56
447.129	507.56
447.35	470.56
447.571	476.56
447.792	480.56
448.013	483.56
448.234	506.56
448.455	574.56
448.675	698.56
448.896	778.56
449.117	678.56
449.338	610.56
449.559	732.56
449.779	793.56
450	670.56
450.221	539.56
450.442	512.56
450.662	464.56
450.883	481.56
451.104	507.56
451.324	480.56
451.545	454.56
451.766	445.56
451.986	439.56
452.207	417.56
452.428	434.56
452.648	419.56
452.869	424.56
453.089	446.56
453.31	442.56
453.53	448.56
453.751	424.56
453.971	438.56
454.192	444.56
454.412	442.56
454.633	435.56
454.853	412.56
455.073	421.56
455.294	464.56
455.514	530.56
455.734	493.56
455.955	427.56
456.175	413.56
456.395	410.56
456.616	389.56
456.836	400.56
457.056	388.56
457.276	384.56
457.497	396.56
457.717	391.56
457.937	401.56
458.157	408.56
458.377	410.56
458.598	457.56
458.818	519.56
459.038	564.56
459.258	626.56
459.478	509.56
459.698	458.56
459.918	434.56
460.138	422.56
460.358	439.56
460.578	436.56
460.798	442.56
461.018	438.56
461.238	440.56
461.458	452.56
461.678	436.56
461.898	438.56
462.118	427.56
462.338	442.56
462.558	442.56
462.777	456.56
462.997	459.56
463.217	483.56
463.437	471.56
463.657	477.56
463.876	460.56
464.096	437.56
464.316	449.56
464.536	495.56
464.755	474.56
464.975	465.56
465.195	512.56
465.414	613.56
465.634	544.56
465.854	496.56
466.073	474.56
466.293	442.56
466.512	437.56
466.732	405.56
466.951	416.56
467.171	422.56
467.391	430.56
467.61	458.56
467.829	439.56
468.049	464.56
468.268	460.56
468.488	438.56
468.707	421.56
468.927	427.56
469.146	416.56
469.365	398.56
469.585	404.56
469.804	437.56
470.023	461.56
470.243	432.56
470.462	440.56
470.681	425.56
470.901	467.56
471.12	442.56
471.339	446.56
471.558	442.56
471.777	451.56
471.997	442.56
472.216	432.56
472.435	502.56
472.654	473.56
472.873	444.56
473.092	451.56
473.311	437.56
473.53	441.56
473.749	432.56
473.968	473.56
474.187	585.56
474.406	629.56
474.625	518.56
474.844	453.56
475.063	448.56
475.282	443.56
475.501	445.56
475.72	434.56
475.939	432.56
476.158	453.56
476.377	445.56
476.596	453.56
476.814	447.56
477.033	454.56
477.252	462.56
477.471	475.56
477.69	468.56
477.908	470.56
478.127	447.56
478.346	480.56
478.564	481.56
478.783	499.56
479.002	486.56
479.22	510.56
479.439	516.56
479.658	530.56
479.876	521.56
480.095	557.56
480.313	551.56
480.532	547.56
480.751	558.56
480.969	536.56
481.188	629.56
481.406	737.56
481.624	626.56
481.843	566.56
482.061	534.56
482.28	522.56
482.498	530.56
482.717	521.56
482.935	526.56
483.153	541.56
483.372	532.56
483.59	524.56
483.808	508.56
484.027	506.56
484.245	522.56
484.463	520.56
484.681	529.56
484.9	520.56
485.118	504.56
485.336	533.56
485.554	532.56
485.772	526.56
485.99	541.56
486.209	542.56
486.427	551.56
486.645	539.56
486.863	564.56
487.081	575.56
487.299	561.56
487.517	546.56
487.735	538.56
487.953	551.56
488.171	565.56
488.389	536.56
488.607	560.56
488.825	565.56
489.043	572.56
489.261	588.56
489.479	564.56
489.696	568.56
489.914	553.56
490.132	573.56
490.35	619.56
490.568	590.56
490.786	604.56
491.003	584.56
491.221	618.56
491.439	625.56
491.657	617.56
491.874	636.56
492.092	630.56
492.31	639.56
492.527	646.56
492.745	646.56
492.963	668.56
493.18	660.56
493.398	662.56
493.615	675.56
493.833	674.56
494.05	685.56
494.268	681.56
494.485	672.56
494.703	678.56
494.92	689.56
495.138	681.56
495.355	675.56
495.573	663.56
495.79	664.56
496.008	658.56
496.225	668.56
496.442	664.56
496.66	672.56
496.877	669.56
497.094	658.56
497.312	696.56
497.529	705.56
497.746	676.56
497.963	680.56
498.181	698.56
498.398	710.56
498.615	722.56
498.832	727.56
499.049	728.56
499.267	737.56
499.484	732.56
499.701	775.56
499.918	774.56
500.135	838.56
500.352	859.56
500.569	850.56
500.786	861.56
501.003	854.56
501.22	834.56
501.437	812.56
501.654	780.56
501.871	791.56
