Data from 1989.PennyLincolnUp.Lamp.En5.5.200Scan.071819.P2_HRD10591_17-23-46-973.txt Node
Date: Thu Jul 18 17:23:46 EDT 2019
User: cochatt
Spectrometer: HR+D1059
Trigger mode: 1
Integration Time (sec): 1.000000E-1
Scans to average: 1
Electric dark correction enabled: true
Nonlinearity correction enabled: false
Boxcar width: 0
XAxis mode: Wavelengths
Number of Pixels in Spectrum: 2048
>>>>>Begin Spectral Data<<<<<
223.165	-16.81
223.4	-16.81
223.635	-16.81
223.869	-20.81
224.104	-29.81
224.338	-3.81
224.573	-16.81
224.808	-3.81
225.042	1.19
225.277	1.19
225.511	-10.81
225.746	-0.81
225.98	3.19
226.215	5.19
226.449	8.19
226.683	27.19
226.918	28.19
227.152	29.19
227.387	25.19
227.621	34.19
227.856	46.19
228.09	41.19
228.324	40.19
228.559	72.19
228.793	74.19
229.027	98.19
229.262	121.19
229.496	109.19
229.73	125.19
229.964	155.19
230.199	132.19
230.433	137.19
230.667	104.19
230.901	110.19
231.136	110.19
231.37	116.19
231.604	120.19
231.838	106.19
232.072	129.19
232.306	102.19
232.541	105.19
232.775	108.19
233.009	130.19
233.243	113.19
233.477	107.19
233.711	122.19
233.945	122.19
234.179	127.19
234.413	114.19
234.647	121.19
234.881	118.19
235.115	122.19
235.349	114.19
235.583	120.19
235.817	129.19
236.051	125.19
236.285	129.19
236.519	131.19
236.753	134.19
236.987	136.19
237.221	189.19
237.455	241.19
237.689	183.19
237.922	146.19
238.156	135.19
238.39	140.19
238.624	133.19
238.858	110.19
239.091	129.19
239.325	109.19
239.559	115.19
239.793	121.19
240.027	138.19
240.26	154.19
240.494	160.19
240.728	154.19
240.961	139.19
241.195	156.19
241.429	133.19
241.662	128.19
241.896	133.19
242.13	134.19
242.363	137.19
242.597	139.19
242.83	138.19
243.064	135.19
243.298	144.19
243.531	139.19
243.765	153.19
243.998	150.19
244.232	141.19
244.465	131.19
244.699	145.19
244.932	145.19
245.166	153.19
245.399	146.19
245.633	152.19
245.866	140.19
246.099	162.19
246.333	150.19
246.566	147.19
246.8	165.19
247.033	173.19
247.266	164.19
247.5	154.19
247.733	181.19
247.966	185.19
248.2	183.19
248.433	181.19
248.666	184.19
248.899	204.19
249.133	204.19
249.366	226.19
249.599	210.19
249.832	185.19
250.066	188.19
250.299	177.19
250.532	210.19
250.765	220.19
250.998	221.19
251.231	235.19
251.465	235.19
251.698	232.19
251.931	210.19
252.164	222.19
252.397	207.19
252.63	197.19
252.863	219.19
253.096	230.19
253.329	234.19
253.562	236.19
253.795	253.19
254.028	249.19
254.261	222.19
254.494	260.19
254.727	276.19
254.96	293.19
255.193	275.19
255.426	258.19
255.659	242.19
255.892	227.19
256.124	223.19
256.357	213.19
256.59	226.19
256.823	241.19
257.056	216.19
257.289	227.19
257.521	214.19
257.754	216.19
257.987	217.19
258.22	215.19
258.452	218.19
258.685	218.19
258.918	228.19
259.151	222.19
259.383	232.19
259.616	239.19
259.849	243.19
260.081	249.19
260.314	262.19
260.547	261.19
260.779	258.19
261.012	257.19
261.244	255.19
261.477	235.19
261.71	229.19
261.942	229.19
262.175	258.19
262.407	254.19
262.64	244.19
262.872	220.19
263.105	235.19
263.337	235.19
263.57	211.19
263.802	235.19
264.035	239.19
264.267	220.19
264.499	236.19
264.732	238.19
264.964	228.19
265.197	226.19
265.429	213.19
265.661	235.19
265.894	227.19
266.126	232.19
266.358	223.19
266.591	244.19
266.823	241.19
267.055	247.19
267.287	255.19
267.52	227.19
267.752	229.19
267.984	233.19
268.216	236.19
268.448	255.19
268.681	269.19
268.913	265.19
269.145	276.19
269.377	285.19
269.609	294.19
269.841	280.19
270.073	302.19
270.306	313.19
270.538	337.19
270.77	349.19
271.002	328.19
271.234	301.19
271.466	318.19
271.698	329.19
271.93	341.19
272.162	337.19
272.394	347.19
272.626	342.19
272.858	324.19
273.09	293.19
273.322	291.19
273.553	289.19
273.785	287.19
274.017	293.19
274.249	292.19
274.481	289.19
274.713	277.19
274.945	289.19
275.176	287.19
275.408	295.19
275.64	265.19
275.872	262.19
276.104	284.19
276.335	277.19
276.567	282.19
276.799	299.19
277.031	323.19
277.262	331.19
277.494	327.19
277.726	314.19
277.957	316.19
278.189	298.19
278.421	292.19
278.652	297.19
278.884	323.19
279.115	283.19
279.347	282.19
279.579	291.19
279.81	284.19
280.042	284.19
280.273	289.19
280.505	283.19
280.736	279.19
280.968	278.19
281.199	287.19
281.431	290.19
281.662	273.19
281.894	285.19
282.125	296.19
282.356	293.19
282.588	305.19
282.819	338.19
283.051	288.19
283.282	285.19
283.513	284.19
283.745	292.19
283.976	306.19
284.207	307.19
284.439	291.19
284.67	283.19
284.901	284.19
285.132	274.19
285.364	286.19
285.595	289.19
285.826	297.19
286.057	310.19
286.288	299.19
286.52	289.19
286.751	289.19
286.982	299.19
287.213	293.19
287.444	280.19
287.675	309.19
287.906	317.19
288.138	324.19
288.369	314.19
288.6	308.19
288.831	315.19
289.062	305.19
289.293	297.19
289.524	314.19
289.755	309.19
289.986	286.19
290.217	293.19
290.448	289.19
290.679	305.19
290.91	290.19
291.141	299.19
291.371	307.19
291.602	296.19
291.833	297.19
292.064	302.19
292.295	291.19
292.526	318.19
292.757	310.19
292.987	287.19
293.218	289.19
293.449	301.19
293.68	305.19
293.91	285.19
294.141	285.19
294.372	301.19
294.603	323.19
294.833	320.19
295.064	303.19
295.295	293.19
295.525	303.19
295.756	299.19
295.987	309.19
296.217	329.19
296.448	342.19
296.679	329.19
296.909	309.19
297.14	294.19
297.37	324.19
297.601	302.19
297.831	313.19
298.062	298.19
298.292	311.19
298.523	321.19
298.753	324.19
298.984	309.19
299.214	333.19
299.445	314.19
299.675	337.19
299.905	323.19
300.136	301.19
300.366	346.19
300.597	323.19
300.827	320.19
301.057	329.19
301.288	355.19
301.518	355.19
301.748	338.19
301.979	325.19
302.209	351.19
302.439	332.19
302.669	343.19
302.9	350.19
303.13	317.19
303.36	334.19
303.59	340.19
303.82	347.19
304.051	354.19
304.281	362.19
304.511	332.19
304.741	344.19
304.971	339.19
305.201	336.19
305.431	325.19
305.661	325.19
305.891	358.19
306.121	355.19
306.352	346.19
306.582	351.19
306.812	344.19
307.042	332.19
307.272	335.19
307.502	349.19
307.731	342.19
307.961	355.19
308.191	345.19
308.421	369.19
308.651	365.19
308.881	345.19
309.111	362.19
309.341	348.19
309.571	379.19
309.8	365.19
310.03	371.19
310.26	395.19
310.49	393.19
310.72	387.19
310.949	400.19
311.179	413.19
311.409	389.19
311.639	391.19
311.868	389.19
312.098	396.19
312.328	401.19
312.557	413.19
312.787	416.19
313.017	409.19
313.246	398.19
313.476	405.19
313.706	396.19
313.935	398.19
314.165	406.19
314.394	402.19
314.624	401.19
314.853	407.19
315.083	383.19
315.312	408.19
315.542	373.19
315.771	381.19
316.001	397.19
316.23	386.19
316.46	371.19
316.689	390.19
316.919	398.19
317.148	395.19
317.377	408.19
317.607	405.19
317.836	395.19
318.065	400.19
318.295	382.19
318.524	400.19
318.753	377.19
318.983	388.19
319.212	396.19
319.441	385.19
319.67	404.19
319.9	419.19
320.129	397.19
320.358	380.19
320.587	421.19
320.816	411.19
321.046	409.19
321.275	420.19
321.504	435.19
321.733	418.19
321.962	425.19
322.191	438.19
322.42	428.19
322.649	491.19
322.878	487.19
323.108	480.19
323.337	513.19
323.566	526.19
323.795	555.19
324.024	565.19
324.253	701.19
324.482	1049.19
324.71	1603.19
324.939	2285.19
325.168	2005.19
325.397	1041.19
325.626	687.19
325.855	591.19
326.084	527.19
326.313	546.19
326.542	551.19
326.77	584.19
326.999	675.19
327.228	938.19
327.457	1438.19
327.686	1727.19
327.914	1154.19
328.143	725.19
328.372	627.19
328.6	609.19
328.829	585.19
329.058	574.19
329.287	594.19
329.515	555.19
329.744	522.19
329.972	515.19
330.201	536.19
330.43	535.19
330.658	569.19
330.887	638.19
331.115	614.19
331.344	526.19
331.572	490.19
331.801	494.19
332.03	503.19
332.258	489.19
332.486	464.19
332.715	447.19
332.943	469.19
333.172	461.19
333.4	461.19
333.629	444.19
333.857	476.19
334.085	443.19
334.314	456.19
334.542	478.19
334.771	469.19
334.999	464.19
335.227	453.19
335.455	454.19
335.684	453.19
335.912	425.19
336.14	431.19
336.369	451.19
336.597	463.19
336.825	456.19
337.053	464.19
337.281	453.19
337.51	439.19
337.738	428.19
337.966	456.19
338.194	465.19
338.422	466.19
338.65	448.19
338.878	434.19
339.106	437.19
339.334	444.19
339.562	427.19
339.79	421.19
340.018	441.19
340.246	426.19
340.474	441.19
340.702	453.19
340.93	436.19
341.158	419.19
341.386	435.19
341.614	439.19
341.842	445.19
342.07	409.19
342.298	416.19
342.526	423.19
342.754	428.19
342.981	403.19
343.209	405.19
343.437	434.19
343.665	425.19
343.893	444.19
344.12	458.19
344.348	460.19
344.576	431.19
344.804	448.19
345.031	462.19
345.259	457.19
345.487	428.19
345.714	428.19
345.942	436.19
346.17	430.19
346.397	420.19
346.625	438.19
346.853	430.19
347.08	437.19
347.308	427.19
347.535	439.19
347.763	434.19
347.99	421.19
348.218	431.19
348.445	439.19
348.673	425.19
348.9	435.19
349.128	418.19
349.355	417.19
349.583	413.19
349.81	402.19
350.037	395.19
350.265	403.19
350.492	397.19
350.72	383.19
350.947	400.19
351.174	437.19
351.402	425.19
351.629	417.19
351.856	412.19
352.083	433.19
352.311	450.19
352.538	439.19
352.765	434.19
352.992	420.19
353.22	422.19
353.447	418.19
353.674	416.19
353.901	408.19
354.128	393.19
354.355	381.19
354.583	371.19
354.81	374.19
355.037	386.19
355.264	383.19
355.491	383.19
355.718	379.19
355.945	411.19
356.172	383.19
356.399	381.19
356.626	390.19
356.853	379.19
357.08	381.19
357.307	373.19
357.534	379.19
357.761	389.19
357.988	392.19
358.215	385.19
358.441	392.19
358.668	387.19
358.895	387.19
359.122	404.19
359.349	402.19
359.576	396.19
359.802	417.19
360.029	461.19
360.256	480.19
360.483	467.19
360.709	428.19
360.936	435.19
361.163	418.19
361.39	410.19
361.616	424.19
361.843	412.19
362.07	399.19
362.296	417.19
362.523	412.19
362.749	405.19
362.976	404.19
363.203	409.19
363.429	387.19
363.656	419.19
363.882	410.19
364.109	382.19
364.335	389.19
364.562	371.19
364.788	372.19
365.015	390.19
365.241	387.19
365.468	387.19
365.694	397.19
365.92	391.19
366.147	394.19
366.373	403.19
366.599	389.19
366.826	379.19
367.052	374.19
367.278	407.19
367.505	397.19
367.731	402.19
367.957	385.19
368.184	391.19
368.41	398.19
368.636	416.19
368.862	400.19
369.089	411.19
369.315	398.19
369.541	394.19
369.767	399.19
369.993	384.19
370.219	400.19
370.445	399.19
370.672	393.19
370.898	380.19
371.124	385.19
371.35	381.19
371.576	373.19
371.802	389.19
372.028	399.19
372.254	386.19
372.48	392.19
372.706	397.19
372.932	359.19
373.158	388.19
373.384	397.19
373.61	392.19
373.835	405.19
374.061	380.19
374.287	400.19
374.513	388.19
374.739	385.19
374.965	381.19
375.191	386.19
375.416	403.19
375.642	373.19
375.868	381.19
376.094	384.19
376.319	379.19
376.545	361.19
376.771	377.19
376.997	383.19
377.222	389.19
377.448	364.19
377.674	381.19
377.899	385.19
378.125	380.19
378.35	371.19
378.576	385.19
378.802	389.19
379.027	373.19
379.253	400.19
379.478	391.19
379.704	397.19
379.929	399.19
380.155	357.19
380.38	389.19
380.606	375.19
380.831	386.19
381.057	385.19
381.282	388.19
381.507	364.19
381.733	396.19
381.958	392.19
382.184	390.19
382.409	394.19
382.634	392.19
382.86	363.19
383.085	395.19
383.31	404.19
383.535	399.19
383.761	406.19
383.986	389.19
384.211	390.19
384.436	386.19
384.662	401.19
384.887	399.19
385.112	400.19
385.337	398.19
385.562	400.19
385.787	404.19
386.013	406.19
386.238	402.19
386.463	428.19
386.688	412.19
386.913	420.19
387.138	401.19
387.363	390.19
387.588	408.19
387.813	390.19
388.038	404.19
388.263	415.19
388.488	393.19
388.713	421.19
388.938	418.19
389.163	404.19
389.387	429.19
389.612	402.19
389.837	420.19
390.062	408.19
390.287	388.19
390.512	386.19
390.736	412.19
390.961	407.19
391.186	403.19
391.411	403.19
391.636	410.19
391.86	424.19
392.085	400.19
392.31	435.19
392.534	409.19
392.759	433.19
392.984	418.19
393.208	412.19
393.433	405.19
393.658	408.19
393.882	394.19
394.107	406.19
394.331	394.19
394.556	399.19
394.78	410.19
395.005	409.19
395.229	411.19
395.454	420.19
395.678	424.19
395.903	418.19
396.127	462.19
396.352	462.19
396.576	435.19
396.801	417.19
397.025	434.19
397.249	423.19
397.474	432.19
397.698	422.19
397.922	452.19
398.147	450.19
398.371	460.19
398.595	455.19
398.82	471.19
399.044	451.19
399.268	487.19
399.492	489.19
399.717	490.19
399.941	520.19
400.165	526.19
400.389	573.19
400.613	510.19
400.837	485.19
401.062	478.19
401.286	462.19
401.51	458.19
401.734	441.19
401.958	456.19
402.182	493.19
402.406	467.19
402.63	478.19
402.854	470.19
403.078	460.19
403.302	458.19
403.526	446.19
403.75	491.19
403.974	476.19
404.198	474.19
404.422	466.19
404.645	476.19
404.869	480.19
405.093	473.19
405.317	505.19
405.541	511.19
405.765	499.19
405.988	491.19
406.212	495.19
406.436	528.19
406.66	522.19
406.883	502.19
407.107	537.19
407.331	578.19
407.555	657.19
407.778	629.19
408.002	572.19
408.226	534.19
408.449	533.19
408.673	545.19
408.896	554.19
409.12	581.19
409.344	569.19
409.567	517.19
409.791	479.19
410.014	481.19
410.238	476.19
410.461	466.19
410.685	493.19
410.908	486.19
411.132	534.19
411.355	557.19
411.578	519.19
411.802	493.19
412.025	459.19
412.249	462.19
412.472	479.19
412.695	487.19
412.919	486.19
413.142	444.19
413.365	440.19
413.589	438.19
413.812	441.19
414.035	439.19
414.258	435.19
414.482	438.19
414.705	453.19
414.928	451.19
415.151	446.19
415.374	429.19
415.597	429.19
415.821	449.19
416.044	442.19
416.267	433.19
416.49	455.19
416.713	444.19
416.936	431.19
417.159	446.19
417.382	453.19
417.605	454.19
417.828	455.19
418.051	455.19
418.274	478.19
418.497	437.19
418.72	455.19
418.943	440.19
419.166	466.19
419.389	475.19
419.611	481.19
419.834	461.19
420.057	466.19
420.28	455.19
420.503	450.19
420.726	460.19
420.948	470.19
421.171	517.19
421.394	563.19
421.617	504.19
421.839	462.19
422.062	464.19
422.285	483.19
422.507	531.19
422.73	621.19
422.953	596.19
423.175	507.19
423.398	490.19
423.621	492.19
423.843	514.19
424.066	509.19
424.288	506.19
424.511	532.19
424.733	558.19
424.956	674.19
425.178	642.19
425.401	647.19
425.623	654.19
425.846	575.19
426.068	540.19
426.291	503.19
426.513	501.19
426.735	518.19
426.958	566.19
427.18	645.19
427.402	779.19
427.625	847.19
427.847	750.19
428.069	613.19
428.292	587.19
428.514	506.19
428.736	478.19
428.958	476.19
429.181	464.19
429.403	447.19
429.625	487.19
429.847	521.19
430.069	574.19
430.292	574.19
430.514	482.19
430.736	464.19
430.958	469.19
431.18	448.19
431.402	456.19
431.624	445.19
431.846	435.19
432.068	432.19
432.29	438.19
432.512	450.19
432.734	450.19
432.956	448.19
433.178	479.19
433.4	462.19
433.622	450.19
433.844	442.19
434.066	445.19
434.287	439.19
434.509	442.19
434.731	440.19
434.953	457.19
435.175	469.19
435.397	513.19
435.618	491.19
435.84	552.19
436.062	636.19
436.284	711.19
436.505	587.19
436.727	529.19
436.949	506.19
437.17	470.19
437.392	479.19
437.614	486.19
437.835	521.19
438.057	585.19
438.278	717.19
438.5	714.19
438.721	816.19
438.943	779.19
439.165	600.19
439.386	537.19
439.608	512.19
439.829	494.19
440.05	582.19
440.272	609.19
440.493	557.19
440.715	517.19
440.936	502.19
441.158	481.19
441.379	470.19
441.6	493.19
441.822	495.19
442.043	544.19
442.264	613.19
442.486	674.19
442.707	571.19
442.928	519.19
443.149	536.19
443.371	565.19
443.592	578.19
443.813	695.19
444.034	731.19
444.255	604.19
444.476	526.19
444.698	521.19
444.919	489.19
445.14	612.19
445.361	562.19
445.582	555.19
445.803	612.19
446.024	742.19
446.245	722.19
446.466	659.19
446.687	549.19
446.908	525.19
447.129	499.19
447.35	482.19
447.571	490.19
447.792	455.19
448.013	491.19
448.234	490.19
448.455	536.19
448.675	667.19
448.896	797.19
449.117	665.19
449.338	628.19
449.559	725.19
449.779	799.19
450	669.19
450.221	541.19
450.442	476.19
450.662	483.19
450.883	476.19
451.104	492.19
451.324	502.19
451.545	447.19
451.766	426.19
451.986	426.19
452.207	414.19
452.428	427.19
452.648	431.19
452.869	422.19
453.089	402.19
453.31	444.19
453.53	432.19
453.751	438.19
453.971	437.19
454.192	425.19
454.412	434.19
454.633	439.19
454.853	412.19
455.073	406.19
455.294	441.19
455.514	480.19
455.734	499.19
455.955	449.19
456.175	413.19
456.395	383.19
456.616	385.19
456.836	396.19
457.056	392.19
457.276	393.19
457.497	386.19
457.717	377.19
457.937	414.19
458.157	402.19
458.377	402.19
458.598	433.19
458.818	488.19
459.038	565.19
459.258	579.19
459.478	510.19
459.698	430.19
459.918	422.19
460.138	423.19
460.358	454.19
460.578	437.19
460.798	465.19
461.018	437.19
461.238	451.19
461.458	434.19
461.678	419.19
461.898	433.19
462.118	427.19
462.338	446.19
462.558	458.19
462.777	460.19
462.997	488.19
463.217	466.19
463.437	447.19
463.657	442.19
463.876	469.19
464.096	462.19
464.316	451.19
464.536	474.19
464.755	486.19
464.975	486.19
465.195	511.19
465.414	611.19
465.634	532.19
465.854	480.19
466.073	453.19
466.293	437.19
466.512	426.19
466.732	435.19
466.951	404.19
467.171	423.19
467.391	434.19
467.61	440.19
467.829	414.19
468.049	435.19
468.268	423.19
468.488	409.19
468.707	414.19
468.927	395.19
469.146	387.19
469.365	414.19
469.585	402.19
469.804	457.19
470.023	448.19
470.243	446.19
470.462	435.19
470.681	466.19
470.901	446.19
471.12	426.19
471.339	441.19
471.558	447.19
471.777	447.19
471.997	423.19
472.216	429.19
472.435	430.19
472.654	416.19
472.873	407.19
473.092	436.19
473.311	425.19
473.53	433.19
473.749	450.19
473.968	486.19
474.187	575.19
474.406	614.19
474.625	490.19
474.844	445.19
475.063	467.19
475.282	445.19
475.501	435.19
475.72	433.19
475.939	445.19
476.158	438.19
476.377	461.19
476.596	430.19
476.814	443.19
477.033	442.19
477.252	449.19
477.471	473.19
477.69	461.19
477.908	490.19
478.127	480.19
478.346	462.19
478.564	463.19
478.783	464.19
479.002	481.19
479.22	475.19
479.439	524.19
479.658	517.19
479.876	505.19
480.095	533.19
480.313	524.19
480.532	539.19
480.751	520.19
480.969	519.19
481.188	525.19
481.406	540.19
481.624	511.19
481.843	508.19
482.061	520.19
482.28	510.19
482.498	505.19
482.717	503.19
482.935	497.19
483.153	486.19
483.372	492.19
483.59	498.19
483.808	496.19
484.027	518.19
484.245	499.19
484.463	509.19
484.681	522.19
484.9	528.19
485.118	522.19
485.336	533.19
485.554	514.19
485.772	525.19
485.99	510.19
486.209	506.19
486.427	531.19
486.645	513.19
486.863	574.19
487.081	573.19
487.299	542.19
487.517	541.19
487.735	539.19
487.953	561.19
488.171	558.19
488.389	544.19
488.607	551.19
488.825	550.19
489.043	559.19
489.261	554.19
489.479	541.19
489.696	554.19
489.914	564.19
490.132	549.19
490.35	563.19
490.568	563.19
490.786	580.19
491.003	573.19
491.221	593.19
491.439	604.19
491.657	605.19
491.874	617.19
492.092	593.19
492.31	592.19
492.527	595.19
492.745	609.19
492.963	617.19
493.18	630.19
493.398	637.19
493.615	639.19
493.833	626.19
494.05	631.19
494.268	628.19
494.485	633.19
494.703	620.19
494.92	641.19
495.138	619.19
495.355	630.19
495.573	625.19
495.79	638.19
496.008	634.19
496.225	652.19
496.442	654.19
496.66	666.19
496.877	655.19
497.094	649.19
497.312	633.19
497.529	646.19
497.746	651.19
497.963	647.19
498.181	697.19
498.398	691.19
498.615	689.19
498.832	693.19
499.049	713.19
499.267	719.19
499.484	742.19
499.701	777.19
499.918	801.19
500.135	822.19
500.352	831.19
500.569	870.19
500.786	817.19
501.003	817.19
501.22	806.19
501.437	817.19
501.654	777.19
501.871	787.19
