Data from 1989.PennyLincolnUp.Lamp.En5.5.200Scan.071819.P2_HRD10591_17-23-19-972.txt Node
Date: Thu Jul 18 17:23:19 EDT 2019
User: cochatt
Spectrometer: HR+D1059
Trigger mode: 1
Integration Time (sec): 1.000000E-1
Scans to average: 1
Electric dark correction enabled: true
Nonlinearity correction enabled: false
Boxcar width: 0
XAxis mode: Wavelengths
Number of Pixels in Spectrum: 2048
>>>>>Begin Spectral Data<<<<<
223.165	-16.12
223.4	-16.12
223.635	-16.12
223.869	-23.12
224.104	-2.12
224.338	-18.12
224.573	-15.12
224.808	-14.12
225.042	-0.12
225.277	2.88
225.511	3.88
225.746	-4.12
225.98	13.88
226.215	11.88
226.449	16.88
226.683	7.88
226.918	17.88
227.152	17.88
227.387	39.88
227.621	43.88
227.856	46.88
228.09	55.88
228.324	67.88
228.559	59.88
228.793	59.88
229.027	85.88
229.262	85.88
229.496	115.88
229.73	130.88
229.964	147.88
230.199	121.88
230.433	120.88
230.667	114.88
230.901	105.88
231.136	94.88
231.37	101.88
231.604	108.88
231.838	118.88
232.072	118.88
232.306	113.88
232.541	111.88
232.775	119.88
233.009	112.88
233.243	109.88
233.477	105.88
233.711	105.88
233.945	124.88
234.179	128.88
234.413	112.88
234.647	111.88
234.881	110.88
235.115	115.88
235.349	102.88
235.583	93.88
235.817	113.88
236.051	116.88
236.285	119.88
236.519	129.88
236.753	119.88
236.987	134.88
237.221	182.88
237.455	201.88
237.689	173.88
237.922	144.88
238.156	117.88
238.39	125.88
238.624	128.88
238.858	121.88
239.091	126.88
239.325	122.88
239.559	120.88
239.793	120.88
240.027	127.88
240.26	121.88
240.494	147.88
240.728	144.88
240.961	144.88
241.195	134.88
241.429	132.88
241.662	119.88
241.896	121.88
242.13	134.88
242.363	127.88
242.597	132.88
242.83	132.88
243.064	118.88
243.298	126.88
243.531	134.88
243.765	136.88
243.998	125.88
244.232	151.88
244.465	129.88
244.699	136.88
244.932	128.88
245.166	147.88
245.399	151.88
245.633	158.88
245.866	142.88
246.099	139.88
246.333	136.88
246.566	150.88
246.8	138.88
247.033	146.88
247.266	147.88
247.5	130.88
247.733	170.88
247.966	155.88
248.2	171.88
248.433	167.88
248.666	189.88
248.899	185.88
249.133	179.88
249.366	197.88
249.599	168.88
249.832	172.88
250.066	180.88
250.299	170.88
250.532	175.88
250.765	189.88
250.998	197.88
251.231	217.88
251.465	193.88
251.698	199.88
251.931	192.88
252.164	198.88
252.397	191.88
252.63	204.88
252.863	197.88
253.096	196.88
253.329	218.88
253.562	219.88
253.795	203.88
254.028	227.88
254.261	212.88
254.494	215.88
254.727	246.88
254.96	249.88
255.193	237.88
255.426	231.88
255.659	205.88
255.892	220.88
256.124	216.88
256.357	197.88
256.59	207.88
256.823	204.88
257.056	212.88
257.289	206.88
257.521	204.88
257.754	200.88
257.987	205.88
258.22	192.88
258.452	195.88
258.685	205.88
258.918	188.88
259.151	202.88
259.383	206.88
259.616	221.88
259.849	209.88
260.081	230.88
260.314	234.88
260.547	243.88
260.779	234.88
261.012	214.88
261.244	211.88
261.477	212.88
261.71	217.88
261.942	230.88
262.175	221.88
262.407	205.88
262.64	228.88
262.872	189.88
263.105	212.88
263.337	206.88
263.57	206.88
263.802	208.88
264.035	204.88
264.267	190.88
264.499	202.88
264.732	212.88
264.964	219.88
265.197	197.88
265.429	197.88
265.661	192.88
265.894	212.88
266.126	203.88
266.358	203.88
266.591	216.88
266.823	216.88
267.055	221.88
267.287	222.88
267.52	217.88
267.752	216.88
267.984	212.88
268.216	213.88
268.448	222.88
268.681	225.88
268.913	235.88
269.145	236.88
269.377	257.88
269.609	259.88
269.841	244.88
270.073	253.88
270.306	266.88
270.538	298.88
270.77	290.88
271.002	289.88
271.234	265.88
271.466	284.88
271.698	289.88
271.93	285.88
272.162	281.88
272.394	271.88
272.626	284.88
272.858	254.88
273.09	266.88
273.322	275.88
273.553	261.88
273.785	260.88
274.017	238.88
274.249	233.88
274.481	252.88
274.713	246.88
274.945	257.88
275.176	247.88
275.408	248.88
275.64	243.88
275.872	257.88
276.104	257.88
276.335	255.88
276.567	244.88
276.799	251.88
277.031	262.88
277.262	302.88
277.494	310.88
277.726	289.88
277.957	265.88
278.189	260.88
278.421	258.88
278.652	269.88
278.884	265.88
279.115	260.88
279.347	248.88
279.579	257.88
279.81	245.88
280.042	261.88
280.273	267.88
280.505	245.88
280.736	271.88
280.968	255.88
281.199	272.88
281.431	248.88
281.662	245.88
281.894	280.88
282.125	261.88
282.356	268.88
282.588	277.88
282.819	270.88
283.051	285.88
283.282	270.88
283.513	269.88
283.745	270.88
283.976	288.88
284.207	255.88
284.439	275.88
284.67	265.88
284.901	265.88
285.132	268.88
285.364	256.88
285.595	269.88
285.826	262.88
286.057	274.88
286.288	261.88
286.52	289.88
286.751	276.88
286.982	270.88
287.213	270.88
287.444	277.88
287.675	279.88
287.906	286.88
288.138	285.88
288.369	262.88
288.6	279.88
288.831	282.88
289.062	280.88
289.293	281.88
289.524	267.88
289.755	275.88
289.986	274.88
290.217	282.88
290.448	251.88
290.679	290.88
290.91	286.88
291.141	269.88
291.371	272.88
291.602	270.88
291.833	294.88
292.064	263.88
292.295	279.88
292.526	269.88
292.757	257.88
292.987	250.88
293.218	270.88
293.449	277.88
293.68	275.88
293.91	279.88
294.141	273.88
294.372	286.88
294.603	268.88
294.833	281.88
295.064	282.88
295.295	281.88
295.525	283.88
295.756	276.88
295.987	279.88
296.217	311.88
296.448	327.88
296.679	291.88
296.909	286.88
297.14	275.88
297.37	298.88
297.601	293.88
297.831	274.88
298.062	290.88
298.292	282.88
298.523	303.88
298.753	285.88
298.984	292.88
299.214	287.88
299.445	302.88
299.675	280.88
299.905	301.88
300.136	306.88
300.366	289.88
300.597	287.88
300.827	298.88
301.057	291.88
301.288	317.88
301.518	310.88
301.748	312.88
301.979	334.88
302.209	331.88
302.439	317.88
302.669	301.88
302.9	301.88
303.13	323.88
303.36	305.88
303.59	287.88
303.82	309.88
304.051	313.88
304.281	302.88
304.511	303.88
304.741	306.88
304.971	286.88
305.201	312.88
305.431	324.88
305.661	306.88
305.891	318.88
306.121	320.88
306.352	334.88
306.582	332.88
306.812	329.88
307.042	305.88
307.272	301.88
307.502	333.88
307.731	301.88
307.961	311.88
308.191	295.88
308.421	329.88
308.651	314.88
308.881	318.88
309.111	331.88
309.341	311.88
309.571	323.88
309.8	338.88
310.03	344.88
310.26	339.88
310.49	344.88
310.72	363.88
310.949	359.88
311.179	358.88
311.409	333.88
311.639	339.88
311.868	363.88
312.098	334.88
312.328	349.88
312.557	373.88
312.787	369.88
313.017	355.88
313.246	349.88
313.476	330.88
313.706	343.88
313.935	365.88
314.165	373.88
314.394	367.88
314.624	387.88
314.853	341.88
315.083	350.88
315.312	357.88
315.542	344.88
315.771	326.88
316.001	337.88
316.23	349.88
316.46	363.88
316.689	343.88
316.919	351.88
317.148	362.88
317.377	369.88
317.607	349.88
317.836	349.88
318.065	322.88
318.295	355.88
318.524	343.88
318.753	357.88
318.983	344.88
319.212	333.88
319.441	341.88
319.67	378.88
319.9	362.88
320.129	355.88
320.358	359.88
320.587	358.88
320.816	346.88
321.046	353.88
321.275	373.88
321.504	370.88
321.733	379.88
321.962	380.88
322.191	379.88
322.42	409.88
322.649	414.88
322.878	391.88
323.108	412.88
323.337	420.88
323.566	427.88
323.795	484.88
324.024	472.88
324.253	523.88
324.482	778.88
324.71	1145.88
324.939	1692.88
325.168	1452.88
325.397	772.88
325.626	543.88
325.855	471.88
326.084	459.88
326.313	451.88
326.542	442.88
326.77	460.88
326.999	539.88
327.228	712.88
327.457	1043.88
327.686	1257.88
327.914	859.88
328.143	576.88
328.372	519.88
328.6	459.88
328.829	470.88
329.058	473.88
329.287	481.88
329.515	461.88
329.744	423.88
329.972	435.88
330.201	443.88
330.43	450.88
330.658	460.88
330.887	502.88
331.115	494.88
331.344	448.88
331.572	433.88
331.801	431.88
332.03	408.88
332.258	412.88
332.486	390.88
332.715	407.88
332.943	398.88
333.172	417.88
333.4	421.88
333.629	405.88
333.857	417.88
334.085	414.88
334.314	391.88
334.542	431.88
334.771	420.88
334.999	418.88
335.227	424.88
335.455	423.88
335.684	399.88
335.912	413.88
336.14	411.88
336.369	394.88
336.597	406.88
336.825	414.88
337.053	410.88
337.281	415.88
337.51	417.88
337.738	402.88
337.966	406.88
338.194	380.88
338.422	391.88
338.65	397.88
338.878	394.88
339.106	382.88
339.334	397.88
339.562	389.88
339.79	400.88
340.018	389.88
340.246	381.88
340.474	385.88
340.702	399.88
340.93	422.88
341.158	401.88
341.386	405.88
341.614	398.88
341.842	399.88
342.07	384.88
342.298	381.88
342.526	376.88
342.754	369.88
342.981	367.88
343.209	387.88
343.437	393.88
343.665	406.88
343.893	398.88
344.12	419.88
344.348	390.88
344.576	404.88
344.804	399.88
345.031	399.88
345.259	428.88
345.487	382.88
345.714	378.88
345.942	377.88
346.17	375.88
346.397	391.88
346.625	388.88
346.853	356.88
347.08	373.88
347.308	373.88
347.535	389.88
347.763	366.88
347.99	366.88
348.218	374.88
348.445	380.88
348.673	379.88
348.9	377.88
349.128	377.88
349.355	378.88
349.583	363.88
349.81	376.88
350.037	353.88
350.265	350.88
350.492	354.88
350.72	340.88
350.947	378.88
351.174	371.88
351.402	382.88
351.629	370.88
351.856	386.88
352.083	381.88
352.311	376.88
352.538	396.88
352.765	383.88
352.992	376.88
353.22	369.88
353.447	351.88
353.674	369.88
353.901	373.88
354.128	358.88
354.355	354.88
354.583	355.88
354.81	368.88
355.037	369.88
355.264	342.88
355.491	352.88
355.718	355.88
355.945	370.88
356.172	356.88
356.399	367.88
356.626	350.88
356.853	362.88
357.08	350.88
357.307	352.88
357.534	361.88
357.761	348.88
357.988	357.88
358.215	371.88
358.441	359.88
358.668	352.88
358.895	345.88
359.122	337.88
359.349	360.88
359.576	376.88
359.802	377.88
360.029	392.88
360.256	421.88
360.483	385.88
360.709	369.88
360.936	367.88
361.163	366.88
361.39	375.88
361.616	383.88
361.843	388.88
362.07	369.88
362.296	373.88
362.523	362.88
362.749	351.88
362.976	344.88
363.203	363.88
363.429	372.88
363.656	379.88
363.882	354.88
364.109	358.88
364.335	364.88
364.562	357.88
364.788	354.88
365.015	355.88
365.241	359.88
365.468	361.88
365.694	356.88
365.92	387.88
366.147	363.88
366.373	366.88
366.599	347.88
366.826	329.88
367.052	345.88
367.278	344.88
367.505	351.88
367.731	371.88
367.957	361.88
368.184	343.88
368.41	377.88
368.636	350.88
368.862	356.88
369.089	370.88
369.315	342.88
369.541	367.88
369.767	356.88
369.993	342.88
370.219	353.88
370.445	361.88
370.672	380.88
370.898	351.88
371.124	358.88
371.35	355.88
371.576	352.88
371.802	339.88
372.028	356.88
372.254	351.88
372.48	350.88
372.706	351.88
372.932	353.88
373.158	343.88
373.384	350.88
373.61	376.88
373.835	361.88
374.061	366.88
374.287	375.88
374.513	373.88
374.739	357.88
374.965	375.88
375.191	366.88
375.416	357.88
375.642	363.88
375.868	357.88
376.094	346.88
376.319	349.88
376.545	348.88
376.771	358.88
376.997	355.88
377.222	357.88
377.448	349.88
377.674	347.88
377.899	357.88
378.125	355.88
378.35	340.88
378.576	346.88
378.802	366.88
379.027	347.88
379.253	364.88
379.478	347.88
379.704	372.88
379.929	345.88
380.155	369.88
380.38	352.88
380.606	369.88
380.831	380.88
381.057	359.88
381.282	345.88
381.507	367.88
381.733	378.88
381.958	375.88
382.184	349.88
382.409	369.88
382.634	366.88
382.86	364.88
383.085	355.88
383.31	351.88
383.535	370.88
383.761	360.88
383.986	365.88
384.211	381.88
384.436	390.88
384.662	360.88
384.887	359.88
385.112	378.88
385.337	385.88
385.562	381.88
385.787	385.88
386.013	392.88
386.238	382.88
386.463	388.88
386.688	398.88
386.913	399.88
387.138	378.88
387.363	379.88
387.588	385.88
387.813	366.88
388.038	377.88
388.263	389.88
388.488	387.88
388.713	380.88
388.938	376.88
389.163	406.88
389.387	377.88
389.612	369.88
389.837	391.88
390.062	395.88
390.287	391.88
390.512	361.88
390.736	359.88
390.961	361.88
391.186	375.88
391.411	387.88
391.636	381.88
391.86	381.88
392.085	394.88
392.31	372.88
392.534	402.88
392.759	385.88
392.984	379.88
393.208	394.88
393.433	390.88
393.658	388.88
393.882	377.88
394.107	377.88
394.331	367.88
394.556	378.88
394.78	397.88
395.005	383.88
395.229	389.88
395.454	376.88
395.678	387.88
395.903	406.88
396.127	393.88
396.352	401.88
396.576	400.88
396.801	395.88
397.025	397.88
397.249	403.88
397.474	403.88
397.698	390.88
397.922	443.88
398.147	399.88
398.371	410.88
398.595	415.88
398.82	417.88
399.044	427.88
399.268	445.88
399.492	454.88
399.717	494.88
399.941	510.88
400.165	525.88
400.389	509.88
400.613	466.88
400.837	445.88
401.062	429.88
401.286	422.88
401.51	427.88
401.734	427.88
401.958	427.88
402.182	438.88
402.406	446.88
402.63	425.88
402.854	434.88
403.078	425.88
403.302	417.88
403.526	454.88
403.75	445.88
403.974	430.88
404.198	418.88
404.422	427.88
404.645	433.88
404.869	440.88
405.093	425.88
405.317	445.88
405.541	497.88
405.765	450.88
405.988	442.88
406.212	446.88
406.436	464.88
406.66	478.88
406.883	447.88
407.107	499.88
407.331	505.88
407.555	585.88
407.778	581.88
408.002	517.88
408.226	467.88
408.449	481.88
408.673	503.88
408.896	505.88
409.12	545.88
409.344	513.88
409.567	457.88
409.791	435.88
410.014	415.88
410.238	429.88
410.461	439.88
410.685	446.88
410.908	465.88
411.132	490.88
411.355	513.88
411.578	482.88
411.802	449.88
412.025	429.88
412.249	444.88
412.472	445.88
412.695	449.88
412.919	444.88
413.142	428.88
413.365	399.88
413.589	412.88
413.812	413.88
414.035	408.88
414.258	421.88
414.482	418.88
414.705	406.88
414.928	408.88
415.151	411.88
415.374	409.88
415.597	395.88
415.821	380.88
416.044	414.88
416.267	390.88
416.49	418.88
416.713	402.88
416.936	411.88
417.159	404.88
417.382	398.88
417.605	419.88
417.828	414.88
418.051	442.88
418.274	415.88
418.497	413.88
418.72	403.88
418.943	418.88
419.166	433.88
419.389	426.88
419.611	449.88
419.834	440.88
420.057	445.88
420.28	416.88
420.503	419.88
420.726	417.88
420.948	433.88
421.171	461.88
421.394	494.88
421.617	440.88
421.839	423.88
422.062	427.88
422.285	446.88
422.507	506.88
422.73	574.88
422.953	542.88
423.175	471.88
423.398	455.88
423.621	477.88
423.843	466.88
424.066	466.88
424.288	455.88
424.511	479.88
424.733	525.88
424.956	589.88
425.178	569.88
425.401	569.88
425.623	573.88
425.846	498.88
426.068	483.88
426.291	440.88
426.513	458.88
426.735	473.88
426.958	506.88
427.18	577.88
427.402	675.88
427.625	745.88
427.847	625.88
428.069	518.88
428.292	490.88
428.514	476.88
428.736	454.88
428.958	449.88
429.181	426.88
429.403	444.88
429.625	429.88
429.847	471.88
430.069	494.88
430.292	525.88
430.514	456.88
430.736	442.88
430.958	445.88
431.18	394.88
431.402	408.88
431.624	399.88
431.846	397.88
432.068	403.88
432.29	391.88
432.512	394.88
432.734	418.88
432.956	426.88
433.178	437.88
433.4	411.88
433.622	408.88
433.844	407.88
434.066	395.88
434.287	389.88
434.509	411.88
434.731	426.88
434.953	427.88
435.175	437.88
435.397	451.88
435.618	451.88
435.84	505.88
436.062	567.88
436.284	614.88
436.505	530.88
436.727	490.88
436.949	423.88
437.17	430.88
437.392	431.88
437.614	431.88
437.835	482.88
438.057	559.88
438.278	597.88
438.5	619.88
438.721	718.88
438.943	678.88
439.165	547.88
439.386	460.88
439.608	473.88
439.829	472.88
440.05	477.88
440.272	511.88
440.493	518.88
440.715	471.88
440.936	452.88
441.158	419.88
441.379	421.88
441.6	452.88
441.822	456.88
442.043	479.88
442.264	572.88
442.486	599.88
442.707	507.88
442.928	479.88
443.149	470.88
443.371	478.88
443.592	519.88
443.813	600.88
444.034	637.88
444.255	539.88
444.476	485.88
444.698	447.88
444.919	439.88
445.14	526.88
445.361	506.88
445.582	507.88
445.803	550.88
446.024	639.88
446.245	646.88
446.466	602.88
446.687	508.88
446.908	475.88
447.129	439.88
447.35	444.88
447.571	443.88
447.792	424.88
448.013	431.88
448.234	451.88
448.455	481.88
448.675	600.88
448.896	693.88
449.117	577.88
449.338	533.88
449.559	638.88
449.779	717.88
450	577.88
450.221	483.88
450.442	431.88
450.662	405.88
450.883	424.88
451.104	440.88
451.324	422.88
451.545	419.88
451.766	399.88
451.986	373.88
452.207	391.88
452.428	360.88
452.648	398.88
452.869	383.88
453.089	387.88
453.31	377.88
453.53	401.88
453.751	368.88
453.971	392.88
454.192	389.88
454.412	381.88
454.633	374.88
454.853	373.88
455.073	375.88
455.294	386.88
455.514	460.88
455.734	431.88
455.955	385.88
456.175	367.88
456.395	372.88
456.616	381.88
456.836	353.88
457.056	358.88
457.276	356.88
457.497	377.88
457.717	345.88
457.937	372.88
458.157	381.88
458.377	369.88
458.598	389.88
458.818	428.88
459.038	471.88
459.258	506.88
459.478	453.88
459.698	413.88
459.918	385.88
460.138	400.88
460.358	389.88
460.578	398.88
460.798	412.88
461.018	407.88
461.238	419.88
461.458	410.88
461.678	400.88
461.898	421.88
462.118	437.88
462.338	419.88
462.558	429.88
462.777	422.88
462.997	443.88
463.217	445.88
463.437	458.88
463.657	433.88
463.876	421.88
464.096	449.88
464.316	442.88
464.536	439.88
464.755	444.88
464.975	421.88
465.195	460.88
465.414	528.88
465.634	444.88
465.854	419.88
466.073	417.88
466.293	407.88
466.512	408.88
466.732	406.88
466.951	398.88
467.171	382.88
467.391	396.88
467.61	406.88
467.829	395.88
468.049	387.88
468.268	390.88
468.488	379.88
468.707	382.88
468.927	384.88
469.146	374.88
469.365	379.88
469.585	368.88
469.804	397.88
470.023	400.88
470.243	389.88
470.462	394.88
470.681	409.88
470.901	421.88
471.12	382.88
471.339	371.88
471.558	394.88
471.777	398.88
471.997	399.88
472.216	386.88
472.435	398.88
472.654	373.88
472.873	373.88
473.092	397.88
473.311	382.88
473.53	397.88
473.749	405.88
473.968	427.88
474.187	517.88
474.406	538.88
474.625	455.88
474.844	428.88
475.063	408.88
475.282	401.88
475.501	389.88
475.72	409.88
475.939	425.88
476.158	405.88
476.377	413.88
476.596	414.88
476.814	420.88
477.033	419.88
477.252	427.88
477.471	417.88
477.69	418.88
477.908	423.88
478.127	426.88
478.346	437.88
478.564	441.88
478.783	438.88
479.002	438.88
479.22	454.88
479.439	458.88
479.658	460.88
479.876	467.88
480.095	469.88
480.313	485.88
480.532	491.88
480.751	500.88
480.969	501.88
481.188	475.88
481.406	451.88
481.624	469.88
481.843	458.88
482.061	435.88
482.28	458.88
482.498	462.88
482.717	475.88
482.935	460.88
483.153	478.88
483.372	467.88
483.59	443.88
483.808	453.88
484.027	459.88
484.245	463.88
484.463	469.88
484.681	475.88
484.9	488.88
485.118	476.88
485.336	476.88
485.554	488.88
485.772	461.88
485.99	464.88
486.209	479.88
486.427	504.88
486.645	477.88
486.863	492.88
487.081	502.88
487.299	493.88
487.517	484.88
487.735	483.88
487.953	474.88
488.171	511.88
488.389	494.88
488.607	496.88
488.825	492.88
489.043	514.88
489.261	485.88
489.479	513.88
489.696	501.88
489.914	510.88
490.132	499.88
490.35	527.88
490.568	512.88
490.786	514.88
491.003	538.88
491.221	524.88
491.439	537.88
491.657	564.88
491.874	565.88
492.092	569.88
492.31	558.88
492.527	551.88
492.745	567.88
492.963	534.88
493.18	565.88
493.398	574.88
493.615	575.88
493.833	574.88
494.05	562.88
494.268	593.88
494.485	554.88
494.703	550.88
494.92	583.88
495.138	555.88
495.355	547.88
495.573	588.88
495.79	606.88
496.008	588.88
496.225	600.88
496.442	565.88
496.66	572.88
496.877	579.88
497.094	590.88
497.312	622.88
497.529	611.88
497.746	603.88
497.963	620.88
498.181	638.88
498.398	655.88
498.615	637.88
498.832	652.88
499.049	649.88
499.267	664.88
499.484	701.88
499.701	702.88
499.918	737.88
500.135	781.88
500.352	749.88
500.569	803.88
500.786	810.88
501.003	782.88
501.22	771.88
501.437	767.88
501.654	738.88
501.871	725.88
502.088	699.88
