Data from 1989.PennyLincolnUp.Lamp.En5.5.200Scan.071819.P2_HRD10591_17-26-28-974.txt Node
Date: Thu Jul 18 17:26:28 EDT 2019
User: cochatt
Spectrometer: HR+D1059
Trigger mode: 1
Integration Time (sec): 1.000000E-1
Scans to average: 1
Electric dark correction enabled: true
Nonlinearity correction enabled: false
Boxcar width: 0
XAxis mode: Wavelengths
Number of Pixels in Spectrum: 2048
>>>>>Begin Spectral Data<<<<<
223.165	-12.81
223.4	-12.81
223.635	-12.81
223.869	-21.81
224.104	-11.81
224.338	-15.81
224.573	-17.81
224.808	-17.81
225.042	-11.81
225.277	-8.81
225.511	11.19
225.746	7.19
225.98	2.19
226.215	3.19
226.449	15.19
226.683	25.19
226.918	19.19
227.152	35.19
227.387	30.19
227.621	31.19
227.856	44.19
228.09	46.19
228.324	50.19
228.559	58.19
228.793	59.19
229.027	110.19
229.262	108.19
229.496	113.19
229.73	133.19
229.964	173.19
230.199	128.19
230.433	106.19
230.667	129.19
230.901	127.19
231.136	129.19
231.37	121.19
231.604	107.19
231.838	111.19
232.072	102.19
232.306	97.19
232.541	107.19
232.775	119.19
233.009	115.19
233.243	108.19
233.477	99.19
233.711	113.19
233.945	111.19
234.179	126.19
234.413	122.19
234.647	110.19
234.881	113.19
235.115	105.19
235.349	125.19
235.583	128.19
235.817	127.19
236.051	129.19
236.285	131.19
236.519	130.19
236.753	143.19
236.987	141.19
237.221	207.19
237.455	244.19
237.689	205.19
237.922	151.19
238.156	148.19
238.39	135.19
238.624	136.19
238.858	120.19
239.091	127.19
239.325	123.19
239.559	129.19
239.793	134.19
240.027	144.19
240.26	147.19
240.494	184.19
240.728	165.19
240.961	147.19
241.195	145.19
241.429	142.19
241.662	144.19
241.896	156.19
242.13	146.19
242.363	142.19
242.597	139.19
242.83	138.19
243.064	162.19
243.298	152.19
243.531	149.19
243.765	149.19
243.998	160.19
244.232	145.19
244.465	158.19
244.699	145.19
244.932	157.19
245.166	143.19
245.399	153.19
245.633	151.19
245.866	154.19
246.099	156.19
246.333	163.19
246.566	152.19
246.8	163.19
247.033	175.19
247.266	191.19
247.5	164.19
247.733	183.19
247.966	187.19
248.2	192.19
248.433	172.19
248.666	191.19
248.899	202.19
249.133	219.19
249.366	244.19
249.599	208.19
249.832	204.19
250.066	206.19
250.299	217.19
250.532	220.19
250.765	225.19
250.998	256.19
251.231	277.19
251.465	252.19
251.698	235.19
251.931	222.19
252.164	225.19
252.397	226.19
252.63	221.19
252.863	213.19
253.096	232.19
253.329	266.19
253.562	252.19
253.795	247.19
254.028	256.19
254.261	248.19
254.494	257.19
254.727	287.19
254.96	328.19
255.193	303.19
255.426	294.19
255.659	275.19
255.892	284.19
256.124	290.19
256.357	328.19
256.59	274.19
256.823	277.19
257.056	249.19
257.289	264.19
257.521	251.19
257.754	249.19
257.987	244.19
258.22	231.19
258.452	229.19
258.685	235.19
258.918	251.19
259.151	232.19
259.383	250.19
259.616	246.19
259.849	244.19
260.081	255.19
260.314	292.19
260.547	300.19
260.779	278.19
261.012	251.19
261.244	255.19
261.477	264.19
261.71	233.19
261.942	236.19
262.175	256.19
262.407	247.19
262.64	255.19
262.872	229.19
263.105	232.19
263.337	243.19
263.57	231.19
263.802	244.19
264.035	257.19
264.267	245.19
264.499	226.19
264.732	231.19
264.964	242.19
265.197	257.19
265.429	250.19
265.661	249.19
265.894	211.19
266.126	239.19
266.358	238.19
266.591	230.19
266.823	251.19
267.055	251.19
267.287	268.19
267.52	265.19
267.752	244.19
267.984	237.19
268.216	259.19
268.448	262.19
268.681	266.19
268.913	259.19
269.145	297.19
269.377	305.19
269.609	309.19
269.841	310.19
270.073	306.19
270.306	346.19
270.538	367.19
270.77	380.19
271.002	347.19
271.234	309.19
271.466	349.19
271.698	376.19
271.93	371.19
272.162	370.19
272.394	359.19
272.626	333.19
272.858	342.19
273.09	310.19
273.322	316.19
273.553	328.19
273.785	312.19
274.017	300.19
274.249	305.19
274.481	310.19
274.713	303.19
274.945	310.19
275.176	296.19
275.408	307.19
275.64	286.19
275.872	295.19
276.104	298.19
276.335	303.19
276.567	305.19
276.799	313.19
277.031	336.19
277.262	360.19
277.494	345.19
277.726	339.19
277.957	330.19
278.189	316.19
278.421	300.19
278.652	296.19
278.884	315.19
279.115	288.19
279.347	305.19
279.579	301.19
279.81	303.19
280.042	287.19
280.273	289.19
280.505	311.19
280.736	305.19
280.968	297.19
281.199	292.19
281.431	300.19
281.662	290.19
281.894	316.19
282.125	313.19
282.356	312.19
282.588	361.19
282.819	349.19
283.051	327.19
283.282	315.19
283.513	308.19
283.745	315.19
283.976	313.19
284.207	301.19
284.439	316.19
284.67	323.19
284.901	298.19
285.132	287.19
285.364	301.19
285.595	291.19
285.826	311.19
286.057	322.19
286.288	325.19
286.52	329.19
286.751	290.19
286.982	311.19
287.213	293.19
287.444	327.19
287.675	323.19
287.906	327.19
288.138	343.19
288.369	340.19
288.6	326.19
288.831	340.19
289.062	316.19
289.293	317.19
289.524	346.19
289.755	324.19
289.986	312.19
290.217	325.19
290.448	339.19
290.679	328.19
290.91	336.19
291.141	327.19
291.371	333.19
291.602	324.19
291.833	315.19
292.064	337.19
292.295	325.19
292.526	321.19
292.757	316.19
292.987	315.19
293.218	322.19
293.449	347.19
293.68	319.19
293.91	327.19
294.141	336.19
294.372	311.19
294.603	317.19
294.833	328.19
295.064	291.19
295.295	328.19
295.525	317.19
295.756	341.19
295.987	345.19
296.217	352.19
296.448	370.19
296.679	347.19
296.909	319.19
297.14	335.19
297.37	330.19
297.601	319.19
297.831	341.19
298.062	346.19
298.292	325.19
298.523	355.19
298.753	321.19
298.984	328.19
299.214	337.19
299.445	342.19
299.675	336.19
299.905	344.19
300.136	339.19
300.366	344.19
300.597	344.19
300.827	342.19
301.057	347.19
301.288	374.19
301.518	357.19
301.748	367.19
301.979	362.19
302.209	339.19
302.439	361.19
302.669	389.19
302.9	354.19
303.13	352.19
303.36	353.19
303.59	368.19
303.82	391.19
304.051	367.19
304.281	371.19
304.511	355.19
304.741	354.19
304.971	362.19
305.201	364.19
305.431	341.19
305.661	375.19
305.891	351.19
306.121	377.19
306.352	361.19
306.582	387.19
306.812	365.19
307.042	367.19
307.272	352.19
307.502	357.19
307.731	352.19
307.961	367.19
308.191	355.19
308.421	362.19
308.651	348.19
308.881	352.19
309.111	368.19
309.341	372.19
309.571	397.19
309.8	405.19
310.03	397.19
310.26	419.19
310.49	415.19
310.72	419.19
310.949	433.19
311.179	426.19
311.409	446.19
311.639	435.19
311.868	426.19
312.098	429.19
312.328	434.19
312.557	440.19
312.787	464.19
313.017	466.19
313.246	435.19
313.476	438.19
313.706	429.19
313.935	424.19
314.165	432.19
314.394	436.19
314.624	428.19
314.853	443.19
315.083	409.19
315.312	421.19
315.542	420.19
315.771	418.19
316.001	397.19
316.23	409.19
316.46	415.19
316.689	409.19
316.919	426.19
317.148	439.19
317.377	445.19
317.607	431.19
317.836	419.19
318.065	415.19
318.295	419.19
318.524	425.19
318.753	420.19
318.983	418.19
319.212	429.19
319.441	416.19
319.67	440.19
319.9	449.19
320.129	440.19
320.358	420.19
320.587	411.19
320.816	420.19
321.046	444.19
321.275	441.19
321.504	455.19
321.733	438.19
321.962	458.19
322.191	466.19
322.42	484.19
322.649	481.19
322.878	510.19
323.108	526.19
323.337	542.19
323.566	587.19
323.795	594.19
324.024	661.19
324.253	827.19
324.482	1161.19
324.71	1847.19
324.939	2634.19
325.168	2296.19
325.397	1161.19
325.626	781.19
325.855	645.19
326.084	590.19
326.313	579.19
326.542	591.19
326.77	642.19
326.999	777.19
327.228	1065.19
327.457	1625.19
327.686	1939.19
327.914	1332.19
328.143	859.19
328.372	750.19
328.6	725.19
328.829	671.19
329.058	674.19
329.287	691.19
329.515	650.19
329.744	619.19
329.972	625.19
330.201	659.19
330.43	718.19
330.658	738.19
330.887	749.19
331.115	717.19
331.344	626.19
331.572	583.19
331.801	567.19
332.03	583.19
332.258	553.19
332.486	512.19
332.715	525.19
332.943	513.19
333.172	524.19
333.4	515.19
333.629	544.19
333.857	569.19
334.085	594.19
334.314	644.19
334.542	700.19
334.771	731.19
334.999	616.19
335.227	531.19
335.455	513.19
335.684	516.19
335.912	504.19
336.14	499.19
336.369	491.19
336.597	514.19
336.825	511.19
337.053	500.19
337.281	476.19
337.51	459.19
337.738	498.19
337.966	481.19
338.194	473.19
338.422	486.19
338.65	489.19
338.878	482.19
339.106	469.19
339.334	466.19
339.562	469.19
339.79	454.19
340.018	467.19
340.246	462.19
340.474	472.19
340.702	458.19
340.93	461.19
341.158	456.19
341.386	461.19
341.614	461.19
341.842	460.19
342.07	447.19
342.298	465.19
342.526	461.19
342.754	447.19
342.981	433.19
343.209	443.19
343.437	445.19
343.665	443.19
343.893	444.19
344.12	456.19
344.348	432.19
344.576	471.19
344.804	475.19
345.031	466.19
345.259	475.19
345.487	482.19
345.714	465.19
345.942	454.19
346.17	439.19
346.397	442.19
346.625	451.19
346.853	441.19
347.08	436.19
347.308	463.19
347.535	451.19
347.763	470.19
347.99	473.19
348.218	478.19
348.445	473.19
348.673	461.19
348.9	415.19
349.128	436.19
349.355	445.19
349.583	406.19
349.81	423.19
350.037	415.19
350.265	433.19
350.492	443.19
350.72	436.19
350.947	450.19
351.174	448.19
351.402	469.19
351.629	472.19
351.856	446.19
352.083	477.19
352.311	461.19
352.538	468.19
352.765	469.19
352.992	465.19
353.22	439.19
353.447	454.19
353.674	438.19
353.901	435.19
354.128	419.19
354.355	424.19
354.583	424.19
354.81	414.19
355.037	395.19
355.264	433.19
355.491	411.19
355.718	402.19
355.945	410.19
356.172	406.19
356.399	405.19
356.626	417.19
356.853	403.19
357.08	416.19
357.307	397.19
357.534	417.19
357.761	405.19
357.988	408.19
358.215	430.19
358.441	423.19
358.668	405.19
358.895	391.19
359.122	411.19
359.349	435.19
359.576	433.19
359.802	463.19
360.029	498.19
360.256	515.19
360.483	482.19
360.709	453.19
360.936	427.19
361.163	458.19
361.39	450.19
361.616	441.19
361.843	424.19
362.07	419.19
362.296	462.19
362.523	432.19
362.749	424.19
362.976	425.19
363.203	426.19
363.429	396.19
363.656	418.19
363.882	425.19
364.109	401.19
364.335	428.19
364.562	418.19
364.788	417.19
365.015	411.19
365.241	416.19
365.468	413.19
365.694	432.19
365.92	426.19
366.147	411.19
366.373	403.19
366.599	392.19
366.826	414.19
367.052	376.19
367.278	395.19
367.505	395.19
367.731	411.19
367.957	404.19
368.184	401.19
368.41	415.19
368.636	409.19
368.862	418.19
369.089	405.19
369.315	393.19
369.541	407.19
369.767	410.19
369.993	400.19
370.219	405.19
370.445	412.19
370.672	424.19
370.898	401.19
371.124	405.19
371.35	403.19
371.576	404.19
371.802	397.19
372.028	391.19
372.254	415.19
372.48	411.19
372.706	402.19
372.932	418.19
373.158	396.19
373.384	400.19
373.61	395.19
373.835	417.19
374.061	397.19
374.287	390.19
374.513	415.19
374.739	399.19
374.965	409.19
375.191	394.19
375.416	392.19
375.642	411.19
375.868	416.19
376.094	400.19
376.319	413.19
376.545	394.19
376.771	395.19
376.997	403.19
377.222	403.19
377.448	413.19
377.674	384.19
377.899	383.19
378.125	364.19
378.35	393.19
378.576	374.19
378.802	374.19
379.027	376.19
379.253	385.19
379.478	403.19
379.704	395.19
379.929	400.19
380.155	395.19
380.38	406.19
380.606	409.19
380.831	408.19
381.057	396.19
381.282	401.19
381.507	398.19
381.733	396.19
381.958	381.19
382.184	388.19
382.409	411.19
382.634	405.19
382.86	401.19
383.085	398.19
383.31	399.19
383.535	411.19
383.761	421.19
383.986	408.19
384.211	420.19
384.436	403.19
384.662	413.19
384.887	404.19
385.112	392.19
385.337	411.19
385.562	391.19
385.787	401.19
386.013	415.19
386.238	435.19
386.463	431.19
386.688	443.19
386.913	419.19
387.138	404.19
387.363	408.19
387.588	425.19
387.813	415.19
388.038	427.19
388.263	419.19
388.488	413.19
388.713	420.19
388.938	402.19
389.163	402.19
389.387	422.19
389.612	420.19
389.837	408.19
390.062	425.19
390.287	420.19
390.512	420.19
390.736	392.19
390.961	416.19
391.186	404.19
391.411	425.19
391.636	421.19
391.86	417.19
392.085	458.19
392.31	439.19
392.534	416.19
392.759	439.19
392.984	423.19
393.208	429.19
393.433	430.19
393.658	412.19
393.882	410.19
394.107	410.19
394.331	419.19
394.556	419.19
394.78	405.19
395.005	395.19
395.229	414.19
395.454	426.19
395.678	425.19
395.903	438.19
396.127	464.19
396.352	461.19
396.576	447.19
396.801	424.19
397.025	435.19
397.249	445.19
397.474	450.19
397.698	443.19
397.922	453.19
398.147	463.19
398.371	476.19
398.595	451.19
398.82	449.19
399.044	460.19
399.268	474.19
399.492	496.19
399.717	530.19
399.941	553.19
400.165	574.19
400.389	589.19
400.613	538.19
400.837	486.19
401.062	497.19
401.286	483.19
401.51	475.19
401.734	483.19
401.958	466.19
402.182	439.19
402.406	487.19
402.63	512.19
402.854	500.19
403.078	472.19
403.302	472.19
403.526	499.19
403.75	511.19
403.974	492.19
404.198	483.19
404.422	487.19
404.645	515.19
404.869	511.19
405.093	565.19
405.317	623.19
405.541	638.19
405.765	581.19
405.988	549.19
406.212	548.19
406.436	548.19
406.66	579.19
406.883	543.19
407.107	566.19
407.331	583.19
407.555	658.19
407.778	651.19
408.002	588.19
408.226	556.19
408.449	565.19
408.673	563.19
408.896	558.19
409.12	613.19
409.344	583.19
409.567	513.19
409.791	510.19
410.014	508.19
410.238	490.19
410.461	492.19
410.685	521.19
410.908	495.19
411.132	550.19
411.355	584.19
411.578	555.19
411.802	521.19
412.025	524.19
412.249	510.19
412.472	547.19
412.695	628.19
412.919	617.19
413.142	549.19
413.365	521.19
413.589	503.19
413.812	484.19
414.035	497.19
414.258	463.19
414.482	454.19
414.705	460.19
414.928	438.19
415.151	449.19
415.374	478.19
415.597	441.19
415.821	441.19
416.044	453.19
416.267	477.19
416.49	467.19
416.713	451.19
416.936	445.19
417.159	459.19
417.382	482.19
417.605	449.19
417.828	497.19
418.051	506.19
418.274	473.19
418.497	455.19
418.72	473.19
418.943	470.19
419.166	477.19
419.389	484.19
419.611	479.19
419.834	503.19
420.057	503.19
420.28	507.19
420.503	519.19
420.726	505.19
420.948	507.19
421.171	557.19
421.394	590.19
421.617	501.19
421.839	503.19
422.062	479.19
422.285	501.19
422.507	559.19
422.73	646.19
422.953	611.19
423.175	515.19
423.398	513.19
423.621	523.19
423.843	523.19
424.066	521.19
424.288	521.19
424.511	534.19
424.733	618.19
424.956	683.19
425.178	659.19
425.401	651.19
425.623	675.19
425.846	588.19
426.068	525.19
426.291	512.19
426.513	525.19
426.735	549.19
426.958	573.19
427.18	647.19
427.402	800.19
427.625	844.19
427.847	798.19
428.069	707.19
428.292	647.19
428.514	543.19
428.736	521.19
428.958	529.19
429.181	511.19
429.403	481.19
429.625	512.19
429.847	539.19
430.069	604.19
430.292	597.19
430.514	517.19
430.736	483.19
430.958	483.19
431.18	459.19
431.402	463.19
431.624	463.19
431.846	439.19
432.068	441.19
432.29	442.19
432.512	459.19
432.734	476.19
432.956	455.19
433.178	472.19
433.4	480.19
433.622	451.19
433.844	461.19
434.066	463.19
434.287	458.19
434.509	451.19
434.731	471.19
434.953	472.19
435.175	477.19
435.397	522.19
435.618	511.19
435.84	579.19
436.062	636.19
436.284	722.19
436.505	610.19
436.727	552.19
436.949	504.19
437.17	486.19
437.392	472.19
437.614	507.19
437.835	550.19
438.057	635.19
438.278	735.19
438.5	756.19
438.721	810.19
438.943	804.19
439.165	630.19
439.386	552.19
439.608	550.19
439.829	540.19
440.05	582.19
440.272	633.19
440.493	604.19
440.715	545.19
440.936	532.19
441.158	503.19
441.379	477.19
441.6	511.19
441.822	522.19
442.043	563.19
442.264	651.19
442.486	707.19
442.707	594.19
442.928	541.19
443.149	552.19
443.371	567.19
443.592	621.19
443.813	732.19
444.034	758.19
444.255	650.19
444.476	559.19
444.698	538.19
444.919	539.19
445.14	660.19
445.361	601.19
445.582	583.19
445.803	645.19
446.024	738.19
446.245	758.19
446.466	689.19
446.687	598.19
446.908	551.19
447.129	523.19
447.35	480.19
447.571	465.19
447.792	477.19
448.013	488.19
448.234	513.19
448.455	569.19
448.675	672.19
448.896	825.19
449.117	675.19
449.338	635.19
449.559	728.19
449.779	854.19
450	697.19
450.221	559.19
450.442	515.19
450.662	489.19
450.883	495.19
451.104	508.19
451.324	502.19
451.545	477.19
451.766	485.19
451.986	436.19
452.207	415.19
452.428	435.19
452.648	423.19
452.869	437.19
453.089	441.19
453.31	463.19
453.53	439.19
453.751	437.19
453.971	464.19
454.192	483.19
454.412	450.19
454.633	446.19
454.853	427.19
455.073	429.19
455.294	474.19
455.514	543.19
455.734	544.19
455.955	447.19
456.175	412.19
456.395	422.19
456.616	414.19
456.836	411.19
457.056	401.19
457.276	391.19
457.497	409.19
457.717	417.19
457.937	408.19
458.157	412.19
458.377	425.19
458.598	471.19
458.818	495.19
459.038	620.19
459.258	611.19
459.478	522.19
459.698	468.19
459.918	439.19
460.138	421.19
460.358	440.19
460.578	447.19
460.798	428.19
461.018	469.19
461.238	467.19
461.458	449.19
461.678	427.19
461.898	452.19
462.118	433.19
462.338	466.19
462.558	459.19
462.777	437.19
462.997	461.19
463.217	473.19
463.437	488.19
463.657	488.19
463.876	479.19
464.096	470.19
464.316	447.19
464.536	493.19
464.755	475.19
464.975	487.19
465.195	533.19
465.414	612.19
465.634	535.19
465.854	511.19
466.073	476.19
466.293	453.19
466.512	444.19
466.732	458.19
466.951	430.19
467.171	450.19
467.391	444.19
467.61	452.19
467.829	450.19
468.049	461.19
468.268	461.19
468.488	471.19
468.707	440.19
468.927	437.19
469.146	440.19
469.365	457.19
469.585	443.19
469.804	442.19
470.023	454.19
470.243	449.19
470.462	461.19
470.681	464.19
470.901	452.19
471.12	467.19
471.339	461.19
471.558	444.19
471.777	459.19
471.997	454.19
472.216	463.19
472.435	567.19
472.654	553.19
472.873	495.19
473.092	467.19
473.311	461.19
473.53	446.19
473.749	474.19
473.968	525.19
474.187	608.19
474.406	644.19
474.625	539.19
474.844	482.19
475.063	457.19
475.282	446.19
475.501	447.19
475.72	470.19
475.939	455.19
476.158	459.19
476.377	485.19
476.596	460.19
476.814	473.19
477.033	476.19
477.252	479.19
477.471	462.19
477.69	484.19
477.908	505.19
478.127	465.19
478.346	456.19
478.564	509.19
478.783	497.19
479.002	515.19
479.22	513.19
479.439	525.19
479.658	538.19
479.876	545.19
480.095	522.19
480.313	607.19
480.532	570.19
480.751	553.19
480.969	581.19
481.188	703.19
481.406	799.19
481.624	664.19
481.843	587.19
482.061	583.19
482.28	548.19
482.498	540.19
482.717	530.19
482.935	569.19
483.153	554.19
483.372	543.19
483.59	553.19
483.808	528.19
484.027	535.19
484.245	532.19
484.463	553.19
484.681	551.19
484.9	540.19
485.118	565.19
485.336	554.19
485.554	547.19
485.772	571.19
485.99	536.19
486.209	562.19
486.427	553.19
486.645	580.19
486.863	611.19
487.081	577.19
487.299	579.19
487.517	575.19
487.735	582.19
487.953	564.19
488.171	583.19
488.389	597.19
488.607	609.19
488.825	589.19
489.043	602.19
489.261	589.19
489.479	596.19
489.696	603.19
489.914	595.19
490.132	602.19
490.35	601.19
490.568	624.19
490.786	616.19
491.003	667.19
491.221	619.19
491.439	655.19
491.657	673.19
491.874	683.19
492.092	695.19
492.31	692.19
492.527	701.19
492.745	684.19
492.963	683.19
493.18	698.19
493.398	677.19
493.615	716.19
493.833	700.19
494.05	720.19
494.268	703.19
494.485	709.19
494.703	660.19
494.92	708.19
495.138	696.19
495.355	693.19
495.573	701.19
495.79	696.19
496.008	695.19
496.225	720.19
496.442	695.19
496.66	673.19
496.877	706.19
497.094	695.19
497.312	699.19
497.529	680.19
497.746	692.19
497.963	715.19
498.181	737.19
498.398	730.19
498.615	720.19
498.832	767.19
499.049	745.19
499.267	766.19
499.484	769.19
499.701	777.19
499.918	810.19
500.135	819.19
500.352	856.19
500.569	883.19
500.786	887.19
501.003	851.19
501.22	871.19
501.437	838.19
501.654	843.19
501.871	851.19
