Data from 1989.PennyLincolnUp.Lamp.En5.5.200Scan.071819.P2_HRD10591_17-24-10-972.txt Node
Date: Thu Jul 18 17:24:10 EDT 2019
User: cochatt
Spectrometer: HR+D1059
Trigger mode: 1
Integration Time (sec): 1.000000E-1
Scans to average: 1
Electric dark correction enabled: true
Nonlinearity correction enabled: false
Boxcar width: 0
XAxis mode: Wavelengths
Number of Pixels in Spectrum: 2048
>>>>>Begin Spectral Data<<<<<
223.165	-19.75
223.4	-19.75
223.635	-19.75
223.869	-20.75
224.104	-24.75
224.338	-9.75
224.573	-7.75
224.808	-29.75
225.042	4.25
225.277	-10.75
225.511	3.25
225.746	10.25
225.98	1.25
226.215	19.25
226.449	16.25
226.683	23.25
226.918	26.25
227.152	19.25
227.387	31.25
227.621	22.25
227.856	43.25
228.09	45.25
228.324	58.25
228.559	58.25
228.793	80.25
229.027	87.25
229.262	111.25
229.496	110.25
229.73	138.25
229.964	162.25
230.199	130.25
230.433	128.25
230.667	105.25
230.901	123.25
231.136	107.25
231.37	113.25
231.604	113.25
231.838	119.25
232.072	114.25
232.306	120.25
232.541	110.25
232.775	113.25
233.009	119.25
233.243	123.25
233.477	125.25
233.711	112.25
233.945	112.25
234.179	111.25
234.413	112.25
234.647	121.25
234.881	111.25
235.115	120.25
235.349	129.25
235.583	125.25
235.817	143.25
236.051	127.25
236.285	127.25
236.519	134.25
236.753	123.25
236.987	148.25
237.221	186.25
237.455	248.25
237.689	199.25
237.922	144.25
238.156	129.25
238.39	129.25
238.624	124.25
238.858	119.25
239.091	124.25
239.325	112.25
239.559	124.25
239.793	126.25
240.027	126.25
240.26	125.25
240.494	170.25
240.728	142.25
240.961	161.25
241.195	149.25
241.429	146.25
241.662	151.25
241.896	141.25
242.13	123.25
242.363	140.25
242.597	138.25
242.83	124.25
243.064	131.25
243.298	143.25
243.531	137.25
243.765	135.25
243.998	155.25
244.232	131.25
244.465	150.25
244.699	137.25
244.932	162.25
245.166	159.25
245.399	146.25
245.633	139.25
245.866	146.25
246.099	155.25
246.333	169.25
246.566	175.25
246.8	146.25
247.033	154.25
247.266	157.25
247.5	163.25
247.733	173.25
247.966	176.25
248.2	169.25
248.433	185.25
248.666	162.25
248.899	191.25
249.133	198.25
249.366	218.25
249.599	221.25
249.832	197.25
250.066	204.25
250.299	183.25
250.532	196.25
250.765	216.25
250.998	231.25
251.231	250.25
251.465	234.25
251.698	233.25
251.931	217.25
252.164	202.25
252.397	218.25
252.63	221.25
252.863	229.25
253.096	233.25
253.329	238.25
253.562	233.25
253.795	246.25
254.028	241.25
254.261	227.25
254.494	226.25
254.727	284.25
254.96	293.25
255.193	278.25
255.426	273.25
255.659	258.25
255.892	228.25
256.124	239.25
256.357	251.25
256.59	243.25
256.823	217.25
257.056	207.25
257.289	236.25
257.521	211.25
257.754	224.25
257.987	214.25
258.22	212.25
258.452	217.25
258.685	221.25
258.918	219.25
259.151	241.25
259.383	240.25
259.616	245.25
259.849	255.25
260.081	255.25
260.314	293.25
260.547	276.25
260.779	259.25
261.012	261.25
261.244	245.25
261.477	240.25
261.71	237.25
261.942	246.25
262.175	268.25
262.407	276.25
262.64	218.25
262.872	228.25
263.105	231.25
263.337	229.25
263.57	243.25
263.802	222.25
264.035	220.25
264.267	225.25
264.499	217.25
264.732	221.25
264.964	231.25
265.197	240.25
265.429	218.25
265.661	222.25
265.894	227.25
266.126	216.25
266.358	239.25
266.591	223.25
266.823	236.25
267.055	256.25
267.287	247.25
267.52	251.25
267.752	231.25
267.984	257.25
268.216	242.25
268.448	240.25
268.681	265.25
268.913	279.25
269.145	267.25
269.377	305.25
269.609	296.25
269.841	287.25
270.073	292.25
270.306	303.25
270.538	344.25
270.77	352.25
271.002	303.25
271.234	320.25
271.466	323.25
271.698	337.25
271.93	351.25
272.162	332.25
272.394	347.25
272.626	340.25
272.858	308.25
273.09	302.25
273.322	300.25
273.553	289.25
273.785	267.25
274.017	286.25
274.249	288.25
274.481	289.25
274.713	301.25
274.945	283.25
275.176	268.25
275.408	303.25
275.64	279.25
275.872	273.25
276.104	287.25
276.335	278.25
276.567	303.25
276.799	306.25
277.031	320.25
277.262	332.25
277.494	330.25
277.726	314.25
277.957	308.25
278.189	309.25
278.421	298.25
278.652	291.25
278.884	295.25
279.115	277.25
279.347	295.25
279.579	285.25
279.81	279.25
280.042	288.25
280.273	283.25
280.505	290.25
280.736	298.25
280.968	297.25
281.199	291.25
281.431	291.25
281.662	282.25
281.894	275.25
282.125	298.25
282.356	327.25
282.588	327.25
282.819	339.25
283.051	306.25
283.282	283.25
283.513	286.25
283.745	320.25
283.976	309.25
284.207	281.25
284.439	289.25
284.67	287.25
284.901	290.25
285.132	292.25
285.364	309.25
285.595	300.25
285.826	297.25
286.057	295.25
286.288	288.25
286.52	277.25
286.751	286.25
286.982	270.25
287.213	295.25
287.444	283.25
287.675	310.25
287.906	322.25
288.138	319.25
288.369	321.25
288.6	335.25
288.831	321.25
289.062	321.25
289.293	313.25
289.524	328.25
289.755	306.25
289.986	308.25
290.217	309.25
290.448	298.25
290.679	299.25
290.91	310.25
291.141	291.25
291.371	296.25
291.602	307.25
291.833	280.25
292.064	309.25
292.295	323.25
292.526	311.25
292.757	315.25
292.987	305.25
293.218	307.25
293.449	316.25
293.68	328.25
293.91	303.25
294.141	298.25
294.372	305.25
294.603	325.25
294.833	313.25
295.064	294.25
295.295	316.25
295.525	308.25
295.756	312.25
295.987	325.25
296.217	339.25
296.448	345.25
296.679	323.25
296.909	319.25
297.14	289.25
297.37	323.25
297.601	292.25
297.831	322.25
298.062	325.25
298.292	322.25
298.523	311.25
298.753	323.25
298.984	303.25
299.214	312.25
299.445	331.25
299.675	313.25
299.905	333.25
300.136	334.25
300.366	324.25
300.597	327.25
300.827	324.25
301.057	348.25
301.288	347.25
301.518	322.25
301.748	344.25
301.979	343.25
302.209	348.25
302.439	331.25
302.669	340.25
302.9	338.25
303.13	338.25
303.36	340.25
303.59	344.25
303.82	347.25
304.051	352.25
304.281	344.25
304.511	357.25
304.741	332.25
304.971	331.25
305.201	344.25
305.431	329.25
305.661	342.25
305.891	327.25
306.121	329.25
306.352	358.25
306.582	356.25
306.812	343.25
307.042	341.25
307.272	352.25
307.502	360.25
307.731	356.25
307.961	347.25
308.191	355.25
308.421	345.25
308.651	352.25
308.881	352.25
309.111	353.25
309.341	368.25
309.571	383.25
309.8	379.25
310.03	388.25
310.26	381.25
310.49	389.25
310.72	394.25
310.949	415.25
311.179	421.25
311.409	410.25
311.639	401.25
311.868	380.25
312.098	411.25
312.328	409.25
312.557	428.25
312.787	438.25
313.017	420.25
313.246	407.25
313.476	404.25
313.706	387.25
313.935	399.25
314.165	402.25
314.394	446.25
314.624	428.25
314.853	425.25
315.083	408.25
315.312	400.25
315.542	413.25
315.771	399.25
316.001	386.25
316.23	385.25
316.46	363.25
316.689	392.25
316.919	381.25
317.148	419.25
317.377	403.25
317.607	406.25
317.836	408.25
318.065	418.25
318.295	383.25
318.524	376.25
318.753	396.25
318.983	393.25
319.212	396.25
319.441	417.25
319.67	421.25
319.9	417.25
320.129	396.25
320.358	403.25
320.587	409.25
320.816	424.25
321.046	407.25
321.275	416.25
321.504	407.25
321.733	415.25
321.962	424.25
322.191	445.25
322.42	451.25
322.649	460.25
322.878	470.25
323.108	495.25
323.337	521.25
323.566	540.25
323.795	569.25
324.024	612.25
324.253	740.25
324.482	1057.25
324.71	1668.25
324.939	2346.25
325.168	2087.25
325.397	1052.25
325.626	731.25
325.855	620.25
326.084	561.25
326.313	540.25
326.542	541.25
326.77	601.25
326.999	673.25
327.228	949.25
327.457	1450.25
327.686	1800.25
327.914	1189.25
328.143	791.25
328.372	667.25
328.6	620.25
328.829	587.25
329.058	615.25
329.287	592.25
329.515	576.25
329.744	541.25
329.972	536.25
330.201	532.25
330.43	532.25
330.658	581.25
330.887	641.25
331.115	588.25
331.344	529.25
331.572	521.25
331.801	504.25
332.03	522.25
332.258	493.25
332.486	467.25
332.715	473.25
332.943	480.25
333.172	465.25
333.4	453.25
333.629	475.25
333.857	484.25
334.085	480.25
334.314	456.25
334.542	475.25
334.771	486.25
334.999	475.25
335.227	468.25
335.455	454.25
335.684	464.25
335.912	446.25
336.14	468.25
336.369	450.25
336.597	465.25
336.825	466.25
337.053	444.25
337.281	461.25
337.51	445.25
337.738	450.25
337.966	453.25
338.194	453.25
338.422	446.25
338.65	441.25
338.878	435.25
339.106	425.25
339.334	448.25
339.562	445.25
339.79	453.25
340.018	442.25
340.246	455.25
340.474	473.25
340.702	453.25
340.93	439.25
341.158	442.25
341.386	441.25
341.614	440.25
341.842	440.25
342.07	439.25
342.298	435.25
342.526	445.25
342.754	423.25
342.981	396.25
343.209	411.25
343.437	420.25
343.665	422.25
343.893	439.25
344.12	452.25
344.348	460.25
344.576	447.25
344.804	453.25
345.031	449.25
345.259	444.25
345.487	441.25
345.714	425.25
345.942	447.25
346.17	435.25
346.397	432.25
346.625	425.25
346.853	428.25
347.08	423.25
347.308	430.25
347.535	431.25
347.763	443.25
347.99	428.25
348.218	420.25
348.445	438.25
348.673	441.25
348.9	409.25
349.128	424.25
349.355	403.25
349.583	409.25
349.81	405.25
350.037	407.25
350.265	406.25
350.492	405.25
350.72	410.25
350.947	413.25
351.174	416.25
351.402	444.25
351.629	435.25
351.856	424.25
352.083	424.25
352.311	435.25
352.538	441.25
352.765	432.25
352.992	437.25
353.22	446.25
353.447	420.25
353.674	419.25
353.901	411.25
354.128	408.25
354.355	395.25
354.583	373.25
354.81	387.25
355.037	409.25
355.264	385.25
355.491	383.25
355.718	396.25
355.945	389.25
356.172	386.25
356.399	391.25
356.626	387.25
356.853	375.25
357.08	387.25
357.307	383.25
357.534	389.25
357.761	411.25
357.988	401.25
358.215	390.25
358.441	401.25
358.668	388.25
358.895	403.25
359.122	398.25
359.349	401.25
359.576	447.25
359.802	432.25
360.029	491.25
360.256	476.25
360.483	448.25
360.709	420.25
360.936	421.25
361.163	413.25
361.39	410.25
361.616	437.25
361.843	431.25
362.07	415.25
362.296	417.25
362.523	417.25
362.749	424.25
362.976	424.25
363.203	405.25
363.429	390.25
363.656	395.25
363.882	392.25
364.109	411.25
364.335	396.25
364.562	400.25
364.788	405.25
365.015	397.25
365.241	394.25
365.468	387.25
365.694	413.25
365.92	417.25
366.147	389.25
366.373	387.25
366.599	404.25
366.826	378.25
367.052	381.25
367.278	392.25
367.505	382.25
367.731	396.25
367.957	395.25
368.184	405.25
368.41	394.25
368.636	423.25
368.862	403.25
369.089	421.25
369.315	380.25
369.541	374.25
369.767	398.25
369.993	395.25
370.219	386.25
370.445	387.25
370.672	391.25
370.898	388.25
371.124	385.25
371.35	386.25
371.576	379.25
371.802	397.25
372.028	405.25
372.254	387.25
372.48	378.25
372.706	383.25
372.932	397.25
373.158	403.25
373.384	383.25
373.61	392.25
373.835	400.25
374.061	378.25
374.287	407.25
374.513	394.25
374.739	405.25
374.965	395.25
375.191	413.25
375.416	397.25
375.642	393.25
375.868	411.25
376.094	404.25
376.319	381.25
376.545	399.25
376.771	369.25
376.997	371.25
377.222	355.25
377.448	345.25
377.674	403.25
377.899	383.25
378.125	397.25
378.35	373.25
378.576	361.25
378.802	387.25
379.027	382.25
379.253	391.25
379.478	383.25
379.704	395.25
379.929	380.25
380.155	392.25
380.38	381.25
380.606	383.25
380.831	387.25
381.057	391.25
381.282	386.25
381.507	375.25
381.733	378.25
381.958	379.25
382.184	398.25
382.409	375.25
382.634	394.25
382.86	391.25
383.085	374.25
383.31	402.25
383.535	392.25
383.761	394.25
383.986	392.25
384.211	409.25
384.436	396.25
384.662	414.25
384.887	388.25
385.112	396.25
385.337	392.25
385.562	426.25
385.787	418.25
386.013	411.25
386.238	422.25
386.463	419.25
386.688	405.25
386.913	409.25
387.138	413.25
387.363	408.25
387.588	395.25
387.813	423.25
388.038	414.25
388.263	413.25
388.488	431.25
388.713	431.25
388.938	393.25
389.163	417.25
389.387	432.25
389.612	421.25
389.837	414.25
390.062	420.25
390.287	425.25
390.512	409.25
390.736	437.25
390.961	411.25
391.186	396.25
391.411	407.25
391.636	415.25
391.86	424.25
392.085	420.25
392.31	412.25
392.534	424.25
392.759	417.25
392.984	388.25
393.208	403.25
393.433	403.25
393.658	413.25
393.882	409.25
394.107	407.25
394.331	425.25
394.556	412.25
394.78	398.25
395.005	395.25
395.229	426.25
395.454	412.25
395.678	435.25
395.903	425.25
396.127	456.25
396.352	462.25
396.576	433.25
396.801	412.25
397.025	423.25
397.249	434.25
397.474	447.25
397.698	439.25
397.922	438.25
398.147	451.25
398.371	447.25
398.595	442.25
398.82	470.25
399.044	452.25
399.268	476.25
399.492	485.25
399.717	535.25
399.941	537.25
400.165	554.25
400.389	573.25
400.613	523.25
400.837	489.25
401.062	472.25
401.286	474.25
401.51	483.25
401.734	441.25
401.958	455.25
402.182	467.25
402.406	485.25
402.63	493.25
402.854	464.25
403.078	459.25
403.302	481.25
403.526	470.25
403.75	464.25
403.974	441.25
404.198	478.25
404.422	465.25
404.645	483.25
404.869	481.25
405.093	488.25
405.317	513.25
405.541	566.25
405.765	525.25
405.988	500.25
406.212	502.25
406.436	546.25
406.66	543.25
406.883	523.25
407.107	540.25
407.331	561.25
407.555	633.25
407.778	633.25
408.002	583.25
408.226	535.25
408.449	525.25
408.673	525.25
408.896	570.25
409.12	583.25
409.344	583.25
409.567	513.25
409.791	482.25
410.014	475.25
410.238	483.25
410.461	475.25
410.685	468.25
410.908	505.25
411.132	556.25
411.355	573.25
411.578	524.25
411.802	493.25
412.025	467.25
412.249	482.25
412.472	457.25
412.695	481.25
412.919	484.25
413.142	476.25
413.365	460.25
413.589	471.25
413.812	443.25
414.035	427.25
414.258	447.25
414.482	429.25
414.705	473.25
414.928	441.25
415.151	455.25
415.374	445.25
415.597	459.25
415.821	455.25
416.044	441.25
416.267	455.25
416.49	460.25
416.713	444.25
416.936	461.25
417.159	444.25
417.382	445.25
417.605	461.25
417.828	450.25
418.051	467.25
418.274	474.25
418.497	452.25
418.72	463.25
418.943	473.25
419.166	493.25
419.389	481.25
419.611	481.25
419.834	476.25
420.057	459.25
420.28	474.25
420.503	455.25
420.726	469.25
420.948	481.25
421.171	523.25
421.394	566.25
421.617	502.25
421.839	475.25
422.062	467.25
422.285	484.25
422.507	550.25
422.73	627.25
422.953	582.25
423.175	520.25
423.398	517.25
423.621	487.25
423.843	517.25
424.066	541.25
424.288	508.25
424.511	519.25
424.733	587.25
424.956	670.25
425.178	639.25
425.401	630.25
425.623	665.25
425.846	564.25
426.068	529.25
426.291	525.25
426.513	510.25
426.735	546.25
426.958	592.25
427.18	644.25
427.402	782.25
427.625	855.25
427.847	757.25
428.069	630.25
428.292	560.25
428.514	497.25
428.736	510.25
428.958	484.25
429.181	473.25
429.403	476.25
429.625	499.25
429.847	509.25
430.069	561.25
430.292	581.25
430.514	495.25
430.736	476.25
430.958	474.25
431.18	460.25
431.402	450.25
431.624	439.25
431.846	431.25
432.068	439.25
432.29	465.25
432.512	445.25
432.734	455.25
432.956	448.25
433.178	479.25
433.4	473.25
433.622	468.25
433.844	461.25
434.066	429.25
434.287	455.25
434.509	433.25
434.731	457.25
434.953	462.25
435.175	468.25
435.397	483.25
435.618	516.25
435.84	567.25
436.062	641.25
436.284	726.25
436.505	617.25
436.727	556.25
436.949	501.25
437.17	481.25
437.392	476.25
437.614	487.25
437.835	520.25
438.057	617.25
438.278	717.25
438.5	714.25
438.721	820.25
438.943	750.25
439.165	585.25
439.386	543.25
439.608	531.25
439.829	552.25
440.05	556.25
440.272	610.25
440.493	571.25
440.715	508.25
440.936	499.25
441.158	490.25
441.379	488.25
441.6	496.25
441.822	501.25
442.043	551.25
442.264	667.25
442.486	690.25
442.707	571.25
442.928	519.25
443.149	540.25
443.371	580.25
443.592	595.25
443.813	682.25
444.034	744.25
444.255	607.25
444.476	556.25
444.698	513.25
444.919	511.25
445.14	598.25
445.361	575.25
445.582	556.25
445.803	618.25
446.024	731.25
446.245	742.25
446.466	665.25
446.687	596.25
446.908	545.25
447.129	506.25
447.35	495.25
447.571	466.25
447.792	465.25
448.013	461.25
448.234	519.25
448.455	559.25
448.675	654.25
448.896	768.25
449.117	671.25
449.338	625.25
449.559	724.25
449.779	817.25
450	665.25
450.221	522.25
450.442	511.25
450.662	481.25
450.883	502.25
451.104	479.25
451.324	493.25
451.545	467.25
451.766	458.25
451.986	437.25
452.207	447.25
452.428	405.25
452.648	421.25
452.869	444.25
453.089	429.25
453.31	467.25
453.53	449.25
453.751	419.25
453.971	431.25
454.192	433.25
454.412	448.25
454.633	413.25
454.853	406.25
455.073	415.25
455.294	452.25
455.514	507.25
455.734	505.25
455.955	424.25
456.175	417.25
456.395	396.25
456.616	403.25
456.836	381.25
457.056	383.25
457.276	385.25
457.497	396.25
457.717	410.25
457.937	418.25
458.157	407.25
458.377	411.25
458.598	443.25
458.818	506.25
459.038	574.25
459.258	590.25
459.478	509.25
459.698	437.25
459.918	440.25
460.138	444.25
460.358	433.25
460.578	418.25
460.798	431.25
461.018	436.25
461.238	436.25
461.458	437.25
461.678	464.25
461.898	456.25
462.118	429.25
462.338	449.25
462.558	464.25
462.777	438.25
462.997	470.25
463.217	453.25
463.437	486.25
463.657	463.25
463.876	473.25
464.096	470.25
464.316	472.25
464.536	466.25
464.755	482.25
464.975	504.25
465.195	535.25
465.414	631.25
465.634	531.25
465.854	481.25
466.073	437.25
466.293	451.25
466.512	449.25
466.732	441.25
466.951	433.25
467.171	433.25
467.391	438.25
467.61	456.25
467.829	458.25
468.049	439.25
468.268	416.25
468.488	403.25
468.707	411.25
468.927	432.25
469.146	402.25
469.365	403.25
469.585	421.25
469.804	429.25
470.023	436.25
470.243	455.25
470.462	461.25
470.681	484.25
470.901	459.25
471.12	463.25
471.339	436.25
471.558	439.25
471.777	437.25
471.997	445.25
472.216	436.25
472.435	440.25
472.654	438.25
472.873	435.25
473.092	431.25
473.311	432.25
473.53	462.25
473.749	449.25
473.968	479.25
474.187	574.25
474.406	632.25
474.625	490.25
474.844	451.25
475.063	448.25
475.282	432.25
475.501	448.25
475.72	448.25
475.939	444.25
476.158	426.25
476.377	460.25
476.596	460.25
476.814	472.25
477.033	465.25
477.252	464.25
477.471	472.25
477.69	471.25
477.908	482.25
478.127	471.25
478.346	472.25
478.564	487.25
478.783	489.25
479.002	483.25
479.22	493.25
479.439	511.25
479.658	525.25
479.876	536.25
480.095	520.25
480.313	547.25
480.532	539.25
480.751	531.25
480.969	536.25
481.188	553.25
481.406	554.25
481.624	539.25
481.843	516.25
482.061	517.25
482.28	497.25
482.498	520.25
482.717	516.25
482.935	522.25
483.153	487.25
483.372	509.25
483.59	528.25
483.808	516.25
484.027	512.25
484.245	521.25
484.463	516.25
484.681	513.25
484.9	517.25
485.118	535.25
485.336	519.25
485.554	527.25
485.772	523.25
485.99	533.25
486.209	535.25
486.427	539.25
486.645	553.25
486.863	550.25
487.081	545.25
487.299	524.25
487.517	545.25
487.735	564.25
487.953	553.25
488.171	531.25
488.389	545.25
488.607	525.25
488.825	540.25
489.043	566.25
489.261	578.25
489.479	547.25
489.696	568.25
489.914	568.25
490.132	589.25
490.35	565.25
490.568	594.25
490.786	567.25
491.003	594.25
491.221	591.25
491.439	601.25
491.657	617.25
491.874	631.25
492.092	599.25
492.31	628.25
492.527	653.25
492.745	618.25
492.963	639.25
493.18	620.25
493.398	626.25
493.615	619.25
493.833	621.25
494.05	637.25
494.268	664.25
494.485	646.25
494.703	640.25
494.92	633.25
495.138	643.25
495.355	659.25
495.573	625.25
495.79	662.25
496.008	653.25
496.225	637.25
496.442	666.25
496.66	675.25
496.877	672.25
497.094	661.25
497.312	680.25
497.529	662.25
497.746	672.25
497.963	689.25
498.181	717.25
498.398	717.25
498.615	728.25
498.832	693.25
499.049	715.25
499.267	732.25
499.484	774.25
499.701	773.25
499.918	800.25
500.135	817.25
500.352	853.25
500.569	867.25
500.786	895.25
501.003	844.25
501.22	850.25
501.437	833.25
501.654	808.25
501.871	775.25
