Data from 1989.PennyLincolnUp.Lamp.En5.5.200Scan.071819.P2_HRD10591_17-25-05-973.txt Node
Date: Thu Jul 18 17:25:05 EDT 2019
User: cochatt
Spectrometer: HR+D1059
Trigger mode: 1
Integration Time (sec): 1.000000E-1
Scans to average: 1
Electric dark correction enabled: true
Nonlinearity correction enabled: false
Boxcar width: 0
XAxis mode: Wavelengths
Number of Pixels in Spectrum: 2048
>>>>>Begin Spectral Data<<<<<
223.165	-12.62
223.4	-12.62
223.635	-12.62
223.869	-18.62
224.104	-17.62
224.338	-16.62
224.573	-13.62
224.808	-25.62
225.042	-17.62
225.277	-10.62
225.511	7.38
225.746	18.38
225.98	3.38
226.215	12.38
226.449	11.38
226.683	26.38
226.918	30.38
227.152	23.38
227.387	28.38
227.621	30.38
227.856	37.38
228.09	38.38
228.324	51.38
228.559	73.38
228.793	71.38
229.027	102.38
229.262	101.38
229.496	120.38
229.73	143.38
229.964	157.38
230.199	135.38
230.433	97.38
230.667	121.38
230.901	120.38
231.136	113.38
231.37	122.38
231.604	128.38
231.838	114.38
232.072	126.38
232.306	113.38
232.541	115.38
232.775	111.38
233.009	104.38
233.243	109.38
233.477	129.38
233.711	124.38
233.945	117.38
234.179	135.38
234.413	126.38
234.647	116.38
234.881	126.38
235.115	128.38
235.349	111.38
235.583	123.38
235.817	134.38
236.051	126.38
236.285	123.38
236.519	129.38
236.753	143.38
236.987	159.38
237.221	187.38
237.455	261.38
237.689	212.38
237.922	155.38
238.156	150.38
238.39	132.38
238.624	134.38
238.858	133.38
239.091	129.38
239.325	130.38
239.559	135.38
239.793	136.38
240.027	156.38
240.26	139.38
240.494	165.38
240.728	166.38
240.961	163.38
241.195	168.38
241.429	149.38
241.662	139.38
241.896	134.38
242.13	142.38
242.363	146.38
242.597	143.38
242.83	137.38
243.064	150.38
243.298	159.38
243.531	138.38
243.765	147.38
243.998	148.38
244.232	138.38
244.465	157.38
244.699	137.38
244.932	146.38
245.166	155.38
245.399	154.38
245.633	153.38
245.866	167.38
246.099	164.38
246.333	146.38
246.566	159.38
246.8	151.38
247.033	157.38
247.266	181.38
247.5	177.38
247.733	176.38
247.966	184.38
248.2	183.38
248.433	192.38
248.666	195.38
248.899	202.38
249.133	219.38
249.366	222.38
249.599	228.38
249.832	217.38
250.066	209.38
250.299	179.38
250.532	216.38
250.765	220.38
250.998	258.38
251.231	236.38
251.465	243.38
251.698	240.38
251.931	223.38
252.164	210.38
252.397	210.38
252.63	244.38
252.863	232.38
253.096	245.38
253.329	246.38
253.562	261.38
253.795	245.38
254.028	249.38
254.261	228.38
254.494	241.38
254.727	291.38
254.96	306.38
255.193	312.38
255.426	288.38
255.659	270.38
255.892	263.38
256.124	249.38
256.357	261.38
256.59	235.38
256.823	239.38
257.056	232.38
257.289	230.38
257.521	225.38
257.754	239.38
257.987	246.38
258.22	245.38
258.452	247.38
258.685	241.38
258.918	249.38
259.151	228.38
259.383	261.38
259.616	255.38
259.849	269.38
260.081	288.38
260.314	274.38
260.547	280.38
260.779	280.38
261.012	288.38
261.244	244.38
261.477	279.38
261.71	254.38
261.942	255.38
262.175	263.38
262.407	263.38
262.64	242.38
262.872	242.38
263.105	235.38
263.337	241.38
263.57	233.38
263.802	223.38
264.035	235.38
264.267	232.38
264.499	235.38
264.732	234.38
264.964	257.38
265.197	245.38
265.429	227.38
265.661	242.38
265.894	223.38
266.126	244.38
266.358	236.38
266.591	229.38
266.823	246.38
267.055	247.38
267.287	242.38
267.52	246.38
267.752	266.38
267.984	261.38
268.216	259.38
268.448	257.38
268.681	273.38
268.913	271.38
269.145	289.38
269.377	307.38
269.609	312.38
269.841	305.38
270.073	299.38
270.306	337.38
270.538	370.38
270.77	364.38
271.002	351.38
271.234	333.38
271.466	346.38
271.698	360.38
271.93	369.38
272.162	373.38
272.394	361.38
272.626	333.38
272.858	339.38
273.09	326.38
273.322	317.38
273.553	310.38
273.785	311.38
274.017	291.38
274.249	314.38
274.481	293.38
274.713	311.38
274.945	321.38
275.176	298.38
275.408	301.38
275.64	309.38
275.872	290.38
276.104	294.38
276.335	299.38
276.567	315.38
276.799	321.38
277.031	341.38
277.262	346.38
277.494	348.38
277.726	333.38
277.957	316.38
278.189	316.38
278.421	298.38
278.652	306.38
278.884	300.38
279.115	314.38
279.347	291.38
279.579	309.38
279.81	289.38
280.042	301.38
280.273	280.38
280.505	299.38
280.736	299.38
280.968	295.38
281.199	290.38
281.431	289.38
281.662	303.38
281.894	292.38
282.125	297.38
282.356	323.38
282.588	321.38
282.819	364.38
283.051	311.38
283.282	308.38
283.513	309.38
283.745	301.38
283.976	295.38
284.207	317.38
284.439	313.38
284.67	321.38
284.901	321.38
285.132	329.38
285.364	311.38
285.595	300.38
285.826	308.38
286.057	315.38
286.288	315.38
286.52	286.38
286.751	313.38
286.982	318.38
287.213	301.38
287.444	305.38
287.675	295.38
287.906	302.38
288.138	336.38
288.369	314.38
288.6	349.38
288.831	313.38
289.062	326.38
289.293	341.38
289.524	325.38
289.755	327.38
289.986	317.38
290.217	329.38
290.448	320.38
290.679	312.38
290.91	331.38
291.141	296.38
291.371	321.38
291.602	313.38
291.833	318.38
292.064	334.38
292.295	310.38
292.526	324.38
292.757	324.38
292.987	323.38
293.218	301.38
293.449	338.38
293.68	309.38
293.91	345.38
294.141	327.38
294.372	320.38
294.603	331.38
294.833	335.38
295.064	311.38
295.295	335.38
295.525	318.38
295.756	339.38
295.987	337.38
296.217	350.38
296.448	384.38
296.679	351.38
296.909	325.38
297.14	324.38
297.37	324.38
297.601	344.38
297.831	333.38
298.062	346.38
298.292	317.38
298.523	320.38
298.753	342.38
298.984	313.38
299.214	341.38
299.445	321.38
299.675	331.38
299.905	349.38
300.136	337.38
300.366	333.38
300.597	339.38
300.827	353.38
301.057	372.38
301.288	358.38
301.518	344.38
301.748	347.38
301.979	351.38
302.209	346.38
302.439	350.38
302.669	353.38
302.9	355.38
303.13	374.38
303.36	363.38
303.59	365.38
303.82	374.38
304.051	375.38
304.281	354.38
304.511	347.38
304.741	345.38
304.971	336.38
305.201	357.38
305.431	334.38
305.661	345.38
305.891	364.38
306.121	358.38
306.352	364.38
306.582	365.38
306.812	379.38
307.042	374.38
307.272	369.38
307.502	379.38
307.731	379.38
307.961	372.38
308.191	349.38
308.421	361.38
308.651	371.38
308.881	389.38
309.111	381.38
309.341	402.38
309.571	380.38
309.8	419.38
310.03	399.38
310.26	419.38
310.49	422.38
310.72	418.38
310.949	443.38
311.179	438.38
311.409	402.38
311.639	417.38
311.868	404.38
312.098	425.38
312.328	423.38
312.557	448.38
312.787	454.38
313.017	443.38
313.246	440.38
313.476	420.38
313.706	423.38
313.935	404.38
314.165	433.38
314.394	448.38
314.624	433.38
314.853	431.38
315.083	425.38
315.312	418.38
315.542	428.38
315.771	409.38
316.001	415.38
316.23	429.38
316.46	407.38
316.689	430.38
316.919	412.38
317.148	435.38
317.377	433.38
317.607	435.38
317.836	427.38
318.065	414.38
318.295	421.38
318.524	404.38
318.753	433.38
318.983	397.38
319.212	407.38
319.441	422.38
319.67	418.38
319.9	413.38
320.129	413.38
320.358	426.38
320.587	414.38
320.816	433.38
321.046	441.38
321.275	461.38
321.504	429.38
321.733	453.38
321.962	447.38
322.191	459.38
322.42	488.38
322.649	488.38
322.878	517.38
323.108	522.38
323.337	548.38
323.566	554.38
323.795	614.38
324.024	674.38
324.253	836.38
324.482	1188.38
324.71	1825.38
324.939	2553.38
325.168	2252.38
325.397	1171.38
325.626	765.38
325.855	653.38
326.084	582.38
326.313	573.38
326.542	568.38
326.77	641.38
326.999	773.38
327.228	1034.38
327.457	1595.38
327.686	1934.38
327.914	1289.38
328.143	846.38
328.372	726.38
328.6	685.38
328.829	642.38
329.058	657.38
329.287	665.38
329.515	625.38
329.744	591.38
329.972	570.38
330.201	571.38
330.43	625.38
330.658	651.38
330.887	697.38
331.115	679.38
331.344	581.38
331.572	544.38
331.801	535.38
332.03	547.38
332.258	527.38
332.486	504.38
332.715	476.38
332.943	506.38
333.172	508.38
333.4	505.38
333.629	514.38
333.857	505.38
334.085	505.38
334.314	518.38
334.542	557.38
334.771	580.38
334.999	532.38
335.227	528.38
335.455	478.38
335.684	489.38
335.912	472.38
336.14	481.38
336.369	480.38
336.597	486.38
336.825	482.38
337.053	477.38
337.281	478.38
337.51	462.38
337.738	475.38
337.966	466.38
338.194	459.38
338.422	463.38
338.65	466.38
338.878	469.38
339.106	473.38
339.334	466.38
339.562	463.38
339.79	476.38
340.018	458.38
340.246	461.38
340.474	481.38
340.702	462.38
340.93	453.38
341.158	473.38
341.386	444.38
341.614	459.38
341.842	467.38
342.07	458.38
342.298	476.38
342.526	437.38
342.754	432.38
342.981	447.38
343.209	454.38
343.437	438.38
343.665	447.38
343.893	444.38
344.12	449.38
344.348	473.38
344.576	472.38
344.804	474.38
345.031	482.38
345.259	486.38
345.487	442.38
345.714	455.38
345.942	439.38
346.17	433.38
346.397	430.38
346.625	437.38
346.853	464.38
347.08	465.38
347.308	442.38
347.535	463.38
347.763	473.38
347.99	477.38
348.218	451.38
348.445	457.38
348.673	461.38
348.9	452.38
349.128	468.38
349.355	430.38
349.583	410.38
349.81	410.38
350.037	430.38
350.265	410.38
350.492	422.38
350.72	441.38
350.947	439.38
351.174	433.38
351.402	457.38
351.629	465.38
351.856	451.38
352.083	453.38
352.311	468.38
352.538	467.38
352.765	466.38
352.992	437.38
353.22	477.38
353.447	424.38
353.674	439.38
353.901	428.38
354.128	411.38
354.355	400.38
354.583	402.38
354.81	413.38
355.037	413.38
355.264	417.38
355.491	417.38
355.718	406.38
355.945	401.38
356.172	389.38
356.399	395.38
356.626	405.38
356.853	412.38
357.08	420.38
357.307	403.38
357.534	405.38
357.761	413.38
357.988	398.38
358.215	410.38
358.441	377.38
358.668	425.38
358.895	392.38
359.122	415.38
359.349	427.38
359.576	433.38
359.802	459.38
360.029	481.38
360.256	478.38
360.483	481.38
360.709	441.38
360.936	444.38
361.163	428.38
361.39	426.38
361.616	421.38
361.843	427.38
362.07	445.38
362.296	461.38
362.523	433.38
362.749	419.38
362.976	413.38
363.203	431.38
363.429	407.38
363.656	422.38
363.882	422.38
364.109	423.38
364.335	423.38
364.562	423.38
364.788	401.38
365.015	408.38
365.241	411.38
365.468	437.38
365.694	426.38
365.92	424.38
366.147	440.38
366.373	411.38
366.599	433.38
366.826	421.38
367.052	388.38
367.278	412.38
367.505	425.38
367.731	401.38
367.957	411.38
368.184	411.38
368.41	414.38
368.636	450.38
368.862	442.38
369.089	432.38
369.315	413.38
369.541	419.38
369.767	412.38
369.993	412.38
370.219	404.38
370.445	387.38
370.672	421.38
370.898	391.38
371.124	379.38
371.35	405.38
371.576	410.38
371.802	395.38
372.028	395.38
372.254	389.38
372.48	397.38
372.706	393.38
372.932	405.38
373.158	394.38
373.384	402.38
373.61	399.38
373.835	405.38
374.061	406.38
374.287	423.38
374.513	406.38
374.739	419.38
374.965	411.38
375.191	418.38
375.416	417.38
375.642	405.38
375.868	402.38
376.094	390.38
376.319	409.38
376.545	387.38
376.771	387.38
376.997	391.38
377.222	390.38
377.448	375.38
377.674	393.38
377.899	409.38
378.125	384.38
378.35	389.38
378.576	401.38
378.802	397.38
379.027	391.38
379.253	377.38
379.478	368.38
379.704	394.38
379.929	406.38
380.155	403.38
380.38	402.38
380.606	413.38
380.831	381.38
381.057	401.38
381.282	405.38
381.507	410.38
381.733	405.38
381.958	415.38
382.184	391.38
382.409	400.38
382.634	409.38
382.86	416.38
383.085	393.38
383.31	390.38
383.535	399.38
383.761	397.38
383.986	415.38
384.211	425.38
384.436	403.38
384.662	409.38
384.887	435.38
385.112	437.38
385.337	417.38
385.562	430.38
385.787	411.38
386.013	437.38
386.238	429.38
386.463	413.38
386.688	434.38
386.913	415.38
387.138	425.38
387.363	431.38
387.588	422.38
387.813	413.38
388.038	421.38
388.263	430.38
388.488	422.38
388.713	422.38
388.938	421.38
389.163	416.38
389.387	430.38
389.612	412.38
389.837	418.38
390.062	399.38
390.287	428.38
390.512	421.38
390.736	426.38
390.961	413.38
391.186	413.38
391.411	422.38
391.636	425.38
391.86	437.38
392.085	455.38
392.31	437.38
392.534	400.38
392.759	425.38
392.984	411.38
393.208	436.38
393.433	420.38
393.658	418.38
393.882	402.38
394.107	424.38
394.331	415.38
394.556	416.38
394.78	441.38
395.005	421.38
395.229	426.38
395.454	452.38
395.678	449.38
395.903	457.38
396.127	459.38
396.352	477.38
396.576	471.38
396.801	428.38
397.025	439.38
397.249	445.38
397.474	423.38
397.698	449.38
397.922	451.38
398.147	465.38
398.371	464.38
398.595	471.38
398.82	486.38
399.044	483.38
399.268	466.38
399.492	498.38
399.717	526.38
399.941	559.38
400.165	592.38
400.389	582.38
400.613	557.38
400.837	509.38
401.062	503.38
401.286	490.38
401.51	481.38
401.734	471.38
401.958	474.38
402.182	469.38
402.406	498.38
402.63	500.38
402.854	504.38
403.078	498.38
403.302	483.38
403.526	494.38
403.75	476.38
403.974	473.38
404.198	490.38
404.422	512.38
404.645	502.38
404.869	510.38
405.093	538.38
405.317	553.38
405.541	587.38
405.765	532.38
405.988	529.38
406.212	541.38
406.436	533.38
406.66	573.38
406.883	543.38
407.107	574.38
407.331	607.38
407.555	680.38
407.778	661.38
408.002	572.38
408.226	568.38
408.449	549.38
408.673	532.38
408.896	581.38
409.12	619.38
409.344	579.38
409.567	520.38
409.791	519.38
410.014	503.38
410.238	487.38
410.461	496.38
410.685	511.38
410.908	517.38
411.132	550.38
411.355	586.38
411.578	547.38
411.802	522.38
412.025	499.38
412.249	511.38
412.472	528.38
412.695	550.38
412.919	527.38
413.142	484.38
413.365	487.38
413.589	475.38
413.812	467.38
414.035	460.38
414.258	470.38
414.482	460.38
414.705	441.38
414.928	443.38
415.151	472.38
415.374	452.38
415.597	451.38
415.821	465.38
416.044	452.38
416.267	467.38
416.49	457.38
416.713	441.38
416.936	455.38
417.159	467.38
417.382	475.38
417.605	465.38
417.828	508.38
418.051	482.38
418.274	484.38
418.497	458.38
418.72	449.38
418.943	462.38
419.166	484.38
419.389	506.38
419.611	478.38
419.834	483.38
420.057	484.38
420.28	486.38
420.503	472.38
420.726	488.38
420.948	507.38
421.171	573.38
421.394	577.38
421.617	519.38
421.839	490.38
422.062	507.38
422.285	509.38
422.507	590.38
422.73	655.38
422.953	630.38
423.175	541.38
423.398	507.38
423.621	501.38
423.843	523.38
424.066	518.38
424.288	532.38
424.511	565.38
424.733	602.38
424.956	685.38
425.178	682.38
425.401	677.38
425.623	689.38
425.846	578.38
426.068	534.38
426.291	541.38
426.513	522.38
426.735	546.38
426.958	575.38
427.18	679.38
427.402	830.38
427.625	895.38
427.847	786.38
428.069	698.38
428.292	581.38
428.514	545.38
428.736	510.38
428.958	518.38
429.181	497.38
429.403	491.38
429.625	506.38
429.847	523.38
430.069	626.38
430.292	583.38
430.514	525.38
430.736	494.38
430.958	477.38
431.18	477.38
431.402	475.38
431.624	456.38
431.846	465.38
432.068	438.38
432.29	456.38
432.512	463.38
432.734	485.38
432.956	454.38
433.178	492.38
433.4	484.38
433.622	499.38
433.844	461.38
434.066	449.38
434.287	453.38
434.509	448.38
434.731	476.38
434.953	476.38
435.175	495.38
435.397	505.38
435.618	543.38
435.84	597.38
436.062	679.38
436.284	747.38
436.505	617.38
436.727	555.38
436.949	527.38
437.17	489.38
437.392	487.38
437.614	519.38
437.835	559.38
438.057	650.38
438.278	766.38
438.5	737.38
438.721	810.38
438.943	810.38
439.165	631.38
439.386	568.38
439.608	551.38
439.829	566.38
440.05	584.38
440.272	641.38
440.493	593.38
440.715	529.38
440.936	504.38
441.158	503.38
441.379	509.38
441.6	497.38
441.822	526.38
442.043	584.38
442.264	649.38
442.486	695.38
442.707	602.38
442.928	547.38
443.149	543.38
443.371	569.38
443.592	610.38
443.813	708.38
444.034	806.38
444.255	653.38
444.476	576.38
444.698	557.38
444.919	543.38
445.14	637.38
445.361	597.38
445.582	568.38
445.803	658.38
446.024	741.38
446.245	778.38
446.466	687.38
446.687	588.38
446.908	539.38
447.129	499.38
447.35	490.38
447.571	492.38
447.792	497.38
448.013	492.38
448.234	523.38
448.455	580.38
448.675	689.38
448.896	802.38
449.117	694.38
449.338	629.38
449.559	770.38
449.779	848.38
450	699.38
450.221	574.38
450.442	526.38
450.662	519.38
450.883	519.38
451.104	514.38
451.324	492.38
451.545	479.38
451.766	457.38
451.986	450.38
452.207	435.38
452.428	412.38
452.648	439.38
452.869	421.38
453.089	445.38
453.31	472.38
453.53	456.38
453.751	443.38
453.971	429.38
454.192	453.38
454.412	467.38
454.633	443.38
454.853	433.38
455.073	442.38
455.294	468.38
455.514	548.38
455.734	522.38
455.955	459.38
456.175	422.38
456.395	415.38
456.616	403.38
456.836	435.38
457.056	409.38
457.276	414.38
457.497	407.38
457.717	401.38
457.937	422.38
458.157	407.38
458.377	424.38
458.598	459.38
458.818	529.38
459.038	611.38
459.258	623.38
459.478	516.38
459.698	481.38
459.918	449.38
460.138	449.38
460.358	455.38
460.578	469.38
460.798	458.38
461.018	458.38
461.238	444.38
461.458	455.38
461.678	445.38
461.898	462.38
462.118	451.38
462.338	473.38
462.558	461.38
462.777	454.38
462.997	471.38
463.217	504.38
463.437	502.38
463.657	480.38
463.876	480.38
464.096	485.38
464.316	473.38
464.536	492.38
464.755	474.38
464.975	498.38
465.195	557.38
465.414	663.38
465.634	551.38
465.854	517.38
466.073	490.38
466.293	461.38
466.512	462.38
466.732	474.38
466.951	438.38
467.171	424.38
467.391	441.38
467.61	465.38
467.829	466.38
468.049	470.38
468.268	468.38
468.488	426.38
468.707	419.38
468.927	416.38
469.146	426.38
469.365	424.38
469.585	439.38
469.804	447.38
470.023	459.38
470.243	445.38
470.462	471.38
470.681	482.38
470.901	484.38
471.12	435.38
471.339	453.38
471.558	465.38
471.777	476.38
471.997	461.38
472.216	443.38
472.435	486.38
472.654	457.38
472.873	444.38
473.092	451.38
473.311	459.38
473.53	443.38
473.749	461.38
473.968	503.38
474.187	593.38
474.406	620.38
474.625	532.38
474.844	487.38
475.063	463.38
475.282	440.38
475.501	464.38
475.72	469.38
475.939	461.38
476.158	457.38
476.377	460.38
476.596	464.38
476.814	473.38
477.033	475.38
477.252	482.38
477.471	465.38
477.69	475.38
477.908	485.38
478.127	490.38
478.346	476.38
478.564	488.38
478.783	504.38
479.002	493.38
479.22	515.38
479.439	530.38
479.658	555.38
479.876	548.38
480.095	553.38
480.313	563.38
480.532	551.38
480.751	541.38
480.969	538.38
481.188	610.38
481.406	636.38
481.624	577.38
481.843	541.38
482.061	534.38
482.28	552.38
482.498	547.38
482.717	527.38
482.935	519.38
483.153	523.38
483.372	524.38
483.59	513.38
483.808	525.38
484.027	501.38
484.245	529.38
484.463	523.38
484.681	523.38
484.9	534.38
485.118	526.38
485.336	522.38
485.554	517.38
485.772	538.38
485.99	569.38
486.209	546.38
486.427	564.38
486.645	561.38
486.863	568.38
487.081	564.38
487.299	588.38
487.517	574.38
487.735	584.38
487.953	588.38
488.171	588.38
488.389	570.38
488.607	563.38
488.825	573.38
489.043	548.38
489.261	602.38
489.479	569.38
489.696	577.38
489.914	579.38
490.132	576.38
490.35	593.38
490.568	598.38
490.786	609.38
491.003	609.38
491.221	630.38
491.439	649.38
491.657	658.38
491.874	663.38
492.092	642.38
492.31	637.38
492.527	652.38
492.745	677.38
492.963	647.38
493.18	674.38
493.398	665.38
493.615	668.38
493.833	683.38
494.05	672.38
494.268	691.38
494.485	683.38
494.703	664.38
494.92	657.38
495.138	715.38
495.355	689.38
495.573	698.38
495.79	693.38
496.008	667.38
496.225	679.38
496.442	677.38
496.66	676.38
496.877	692.38
497.094	685.38
497.312	673.38
497.529	704.38
497.746	685.38
497.963	690.38
498.181	737.38
498.398	755.38
498.615	734.38
498.832	777.38
499.049	754.38
499.267	753.38
499.484	784.38
499.701	809.38
499.918	822.38
500.135	851.38
500.352	857.38
500.569	859.38
500.786	894.38
501.003	858.38
501.22	881.38
501.437	847.38
501.654	834.38
501.871	820.38
