Data from 1989.PennyLincolnUp.Lamp.En5.5.200Scan.071819.P2_HRD10591_17-24-49-973.txt Node
Date: Thu Jul 18 17:24:49 EDT 2019
User: cochatt
Spectrometer: HR+D1059
Trigger mode: 1
Integration Time (sec): 1.000000E-1
Scans to average: 1
Electric dark correction enabled: true
Nonlinearity correction enabled: false
Boxcar width: 0
XAxis mode: Wavelengths
Number of Pixels in Spectrum: 2048
>>>>>Begin Spectral Data<<<<<
223.165	4.62
223.4	4.62
223.635	4.62
223.869	-9.38
224.104	-17.38
224.338	-22.38
224.573	-22.38
224.808	-22.38
225.042	-6.38
225.277	-7.38
225.511	-7.38
225.746	-12.38
225.98	-9.38
226.215	26.62
226.449	20.62
226.683	21.62
226.918	32.62
227.152	30.62
227.387	32.62
227.621	53.62
227.856	53.62
228.09	32.62
228.324	40.62
228.559	50.62
228.793	68.62
229.027	103.62
229.262	110.62
229.496	114.62
229.73	132.62
229.964	150.62
230.199	138.62
230.433	126.62
230.667	122.62
230.901	112.62
231.136	114.62
231.37	115.62
231.604	110.62
231.838	123.62
232.072	124.62
232.306	97.62
232.541	111.62
232.775	114.62
233.009	125.62
233.243	126.62
233.477	124.62
233.711	109.62
233.945	114.62
234.179	118.62
234.413	122.62
234.647	125.62
234.881	124.62
235.115	125.62
235.349	124.62
235.583	129.62
235.817	124.62
236.051	122.62
236.285	125.62
236.519	120.62
236.753	124.62
236.987	149.62
237.221	184.62
237.455	252.62
237.689	213.62
237.922	157.62
238.156	143.62
238.39	144.62
238.624	139.62
238.858	138.62
239.091	137.62
239.325	133.62
239.559	123.62
239.793	135.62
240.027	141.62
240.26	135.62
240.494	158.62
240.728	162.62
240.961	146.62
241.195	152.62
241.429	143.62
241.662	137.62
241.896	140.62
242.13	148.62
242.363	139.62
242.597	135.62
242.83	158.62
243.064	134.62
243.298	148.62
243.531	158.62
243.765	151.62
243.998	146.62
244.232	150.62
244.465	147.62
244.699	156.62
244.932	146.62
245.166	164.62
245.399	158.62
245.633	154.62
245.866	168.62
246.099	145.62
246.333	150.62
246.566	159.62
246.8	154.62
247.033	158.62
247.266	174.62
247.5	168.62
247.733	182.62
247.966	185.62
248.2	170.62
248.433	192.62
248.666	178.62
248.899	210.62
249.133	208.62
249.366	204.62
249.599	210.62
249.832	208.62
250.066	190.62
250.299	191.62
250.532	205.62
250.765	213.62
250.998	237.62
251.231	244.62
251.465	237.62
251.698	219.62
251.931	199.62
252.164	195.62
252.397	210.62
252.63	214.62
252.863	225.62
253.096	230.62
253.329	246.62
253.562	244.62
253.795	248.62
254.028	237.62
254.261	251.62
254.494	239.62
254.727	265.62
254.96	324.62
255.193	299.62
255.426	270.62
255.659	248.62
255.892	272.62
256.124	253.62
256.357	256.62
256.59	240.62
256.823	232.62
257.056	205.62
257.289	228.62
257.521	215.62
257.754	226.62
257.987	224.62
258.22	239.62
258.452	231.62
258.685	233.62
258.918	218.62
259.151	203.62
259.383	228.62
259.616	256.62
259.849	250.62
260.081	270.62
260.314	274.62
260.547	301.62
260.779	287.62
261.012	270.62
261.244	238.62
261.477	247.62
261.71	244.62
261.942	249.62
262.175	254.62
262.407	255.62
262.64	248.62
262.872	248.62
263.105	245.62
263.337	238.62
263.57	220.62
263.802	251.62
264.035	228.62
264.267	230.62
264.499	224.62
264.732	242.62
264.964	228.62
265.197	224.62
265.429	221.62
265.661	242.62
265.894	234.62
266.126	223.62
266.358	244.62
266.591	225.62
266.823	222.62
267.055	260.62
267.287	242.62
267.52	243.62
267.752	258.62
267.984	229.62
268.216	248.62
268.448	252.62
268.681	260.62
268.913	252.62
269.145	284.62
269.377	286.62
269.609	304.62
269.841	290.62
270.073	290.62
270.306	311.62
270.538	325.62
270.77	338.62
271.002	336.62
271.234	320.62
271.466	342.62
271.698	338.62
271.93	362.62
272.162	342.62
272.394	344.62
272.626	332.62
272.858	331.62
273.09	331.62
273.322	298.62
273.553	293.62
273.785	299.62
274.017	290.62
274.249	300.62
274.481	289.62
274.713	293.62
274.945	308.62
275.176	304.62
275.408	296.62
275.64	289.62
275.872	274.62
276.104	295.62
276.335	299.62
276.567	286.62
276.799	305.62
277.031	344.62
277.262	339.62
277.494	360.62
277.726	342.62
277.957	324.62
278.189	319.62
278.421	305.62
278.652	296.62
278.884	282.62
279.115	295.62
279.347	292.62
279.579	264.62
279.81	280.62
280.042	288.62
280.273	288.62
280.505	282.62
280.736	278.62
280.968	283.62
281.199	284.62
281.431	261.62
281.662	277.62
281.894	288.62
282.125	286.62
282.356	308.62
282.588	329.62
282.819	333.62
283.051	303.62
283.282	289.62
283.513	306.62
283.745	292.62
283.976	304.62
284.207	297.62
284.439	284.62
284.67	295.62
284.901	306.62
285.132	301.62
285.364	288.62
285.595	290.62
285.826	306.62
286.057	288.62
286.288	306.62
286.52	282.62
286.751	291.62
286.982	300.62
287.213	300.62
287.444	308.62
287.675	298.62
287.906	320.62
288.138	312.62
288.369	326.62
288.6	315.62
288.831	325.62
289.062	312.62
289.293	324.62
289.524	316.62
289.755	305.62
289.986	304.62
290.217	302.62
290.448	308.62
290.679	301.62
290.91	294.62
291.141	310.62
291.371	290.62
291.602	292.62
291.833	300.62
292.064	305.62
292.295	308.62
292.526	304.62
292.757	307.62
292.987	286.62
293.218	288.62
293.449	315.62
293.68	304.62
293.91	304.62
294.141	299.62
294.372	296.62
294.603	308.62
294.833	300.62
295.064	299.62
295.295	302.62
295.525	314.62
295.756	328.62
295.987	320.62
296.217	353.62
296.448	344.62
296.679	306.62
296.909	297.62
297.14	309.62
297.37	321.62
297.601	316.62
297.831	324.62
298.062	291.62
298.292	337.62
298.523	329.62
298.753	330.62
298.984	302.62
299.214	331.62
299.445	331.62
299.675	313.62
299.905	319.62
300.136	308.62
300.366	353.62
300.597	329.62
300.827	320.62
301.057	345.62
301.288	342.62
301.518	343.62
301.748	334.62
301.979	337.62
302.209	341.62
302.439	352.62
302.669	356.62
302.9	345.62
303.13	328.62
303.36	354.62
303.59	347.62
303.82	354.62
304.051	348.62
304.281	340.62
304.511	334.62
304.741	338.62
304.971	329.62
305.201	341.62
305.431	343.62
305.661	333.62
305.891	332.62
306.121	346.62
306.352	349.62
306.582	375.62
306.812	361.62
307.042	355.62
307.272	338.62
307.502	346.62
307.731	347.62
307.961	356.62
308.191	363.62
308.421	361.62
308.651	365.62
308.881	361.62
309.111	358.62
309.341	378.62
309.571	382.62
309.8	380.62
310.03	414.62
310.26	409.62
310.49	394.62
310.72	407.62
310.949	432.62
311.179	422.62
311.409	402.62
311.639	399.62
311.868	429.62
312.098	400.62
312.328	403.62
312.557	437.62
312.787	436.62
313.017	443.62
313.246	439.62
313.476	410.62
313.706	394.62
313.935	416.62
314.165	416.62
314.394	433.62
314.624	405.62
314.853	412.62
315.083	389.62
315.312	403.62
315.542	392.62
315.771	400.62
316.001	410.62
316.23	380.62
316.46	367.62
316.689	408.62
316.919	401.62
317.148	419.62
317.377	416.62
317.607	434.62
317.836	404.62
318.065	409.62
318.295	406.62
318.524	389.62
318.753	389.62
318.983	391.62
319.212	401.62
319.441	410.62
319.67	427.62
319.9	417.62
320.129	394.62
320.358	389.62
320.587	410.62
320.816	416.62
321.046	422.62
321.275	428.62
321.504	418.62
321.733	418.62
321.962	437.62
322.191	444.62
322.42	448.62
322.649	473.62
322.878	500.62
323.108	501.62
323.337	525.62
323.566	543.62
323.795	594.62
324.024	643.62
324.253	786.62
324.482	1116.62
324.71	1736.62
324.939	2472.62
325.168	2185.62
325.397	1110.62
325.626	733.62
325.855	628.62
326.084	568.62
326.313	558.62
326.542	565.62
326.77	612.62
326.999	707.62
327.228	984.62
327.457	1542.62
327.686	1810.62
327.914	1223.62
328.143	812.62
328.372	706.62
328.6	640.62
328.829	591.62
329.058	628.62
329.287	619.62
329.515	603.62
329.744	526.62
329.972	543.62
330.201	535.62
330.43	570.62
330.658	613.62
330.887	670.62
331.115	648.62
331.344	551.62
331.572	540.62
331.801	515.62
332.03	512.62
332.258	489.62
332.486	475.62
332.715	466.62
332.943	476.62
333.172	478.62
333.4	469.62
333.629	505.62
333.857	514.62
334.085	514.62
334.314	515.62
334.542	508.62
334.771	519.62
334.999	480.62
335.227	483.62
335.455	476.62
335.684	464.62
335.912	459.62
336.14	450.62
336.369	445.62
336.597	464.62
336.825	456.62
337.053	462.62
337.281	443.62
337.51	453.62
337.738	443.62
337.966	468.62
338.194	470.62
338.422	461.62
338.65	438.62
338.878	446.62
339.106	445.62
339.334	436.62
339.562	438.62
339.79	429.62
340.018	445.62
340.246	437.62
340.474	453.62
340.702	462.62
340.93	456.62
341.158	432.62
341.386	432.62
341.614	444.62
341.842	444.62
342.07	441.62
342.298	440.62
342.526	393.62
342.754	396.62
342.981	420.62
343.209	421.62
343.437	422.62
343.665	448.62
343.893	437.62
344.12	448.62
344.348	443.62
344.576	450.62
344.804	452.62
345.031	447.62
345.259	478.62
345.487	443.62
345.714	441.62
345.942	444.62
346.17	429.62
346.397	408.62
346.625	412.62
346.853	448.62
347.08	432.62
347.308	434.62
347.535	460.62
347.763	444.62
347.99	441.62
348.218	447.62
348.445	439.62
348.673	436.62
348.9	424.62
349.128	418.62
349.355	410.62
349.583	432.62
349.81	414.62
350.037	401.62
350.265	411.62
350.492	397.62
350.72	426.62
350.947	408.62
351.174	441.62
351.402	437.62
351.629	430.62
351.856	456.62
352.083	448.62
352.311	438.62
352.538	422.62
352.765	455.62
352.992	453.62
353.22	425.62
353.447	404.62
353.674	414.62
353.901	402.62
354.128	411.62
354.355	415.62
354.583	398.62
354.81	408.62
355.037	404.62
355.264	384.62
355.491	393.62
355.718	393.62
355.945	379.62
356.172	399.62
356.399	374.62
356.626	378.62
356.853	403.62
357.08	379.62
357.307	376.62
357.534	391.62
357.761	372.62
357.988	412.62
358.215	370.62
358.441	408.62
358.668	404.62
358.895	408.62
359.122	408.62
359.349	413.62
359.576	417.62
359.802	465.62
360.029	471.62
360.256	478.62
360.483	459.62
360.709	451.62
360.936	414.62
361.163	419.62
361.39	428.62
361.616	427.62
361.843	421.62
362.07	399.62
362.296	428.62
362.523	398.62
362.749	399.62
362.976	436.62
363.203	416.62
363.429	420.62
363.656	414.62
363.882	410.62
364.109	392.62
364.335	394.62
364.562	419.62
364.788	408.62
365.015	405.62
365.241	399.62
365.468	409.62
365.694	418.62
365.92	404.62
366.147	390.62
366.373	404.62
366.599	384.62
366.826	396.62
367.052	387.62
367.278	402.62
367.505	394.62
367.731	402.62
367.957	402.62
368.184	390.62
368.41	396.62
368.636	410.62
368.862	425.62
369.089	408.62
369.315	406.62
369.541	404.62
369.767	392.62
369.993	386.62
370.219	398.62
370.445	379.62
370.672	391.62
370.898	385.62
371.124	392.62
371.35	375.62
371.576	385.62
371.802	381.62
372.028	384.62
372.254	380.62
372.48	373.62
372.706	370.62
372.932	381.62
373.158	396.62
373.384	398.62
373.61	393.62
373.835	390.62
374.061	388.62
374.287	393.62
374.513	404.62
374.739	399.62
374.965	383.62
375.191	385.62
375.416	388.62
375.642	385.62
375.868	385.62
376.094	397.62
376.319	387.62
376.545	382.62
376.771	388.62
376.997	388.62
377.222	392.62
377.448	390.62
377.674	376.62
377.899	386.62
378.125	390.62
378.35	373.62
378.576	356.62
378.802	378.62
379.027	363.62
379.253	358.62
379.478	372.62
379.704	384.62
379.929	371.62
380.155	366.62
380.38	398.62
380.606	375.62
380.831	380.62
381.057	385.62
381.282	381.62
381.507	389.62
381.733	384.62
381.958	411.62
382.184	390.62
382.409	380.62
382.634	384.62
382.86	382.62
383.085	407.62
383.31	404.62
383.535	387.62
383.761	398.62
383.986	399.62
384.211	390.62
384.436	390.62
384.662	394.62
384.887	388.62
385.112	391.62
385.337	402.62
385.562	410.62
385.787	395.62
386.013	392.62
386.238	420.62
386.463	412.62
386.688	412.62
386.913	406.62
387.138	426.62
387.363	393.62
387.588	405.62
387.813	423.62
388.038	405.62
388.263	410.62
388.488	412.62
388.713	404.62
388.938	409.62
389.163	418.62
389.387	418.62
389.612	404.62
389.837	391.62
390.062	406.62
390.287	411.62
390.512	404.62
390.736	400.62
390.961	408.62
391.186	390.62
391.411	439.62
391.636	403.62
391.86	415.62
392.085	429.62
392.31	409.62
392.534	402.62
392.759	418.62
392.984	396.62
393.208	404.62
393.433	414.62
393.658	399.62
393.882	416.62
394.107	402.62
394.331	402.62
394.556	403.62
394.78	416.62
395.005	407.62
395.229	411.62
395.454	410.62
395.678	412.62
395.903	434.62
396.127	450.62
396.352	470.62
396.576	426.62
396.801	432.62
397.025	398.62
397.249	428.62
397.474	425.62
397.698	433.62
397.922	445.62
398.147	446.62
398.371	440.62
398.595	419.62
398.82	438.62
399.044	438.62
399.268	479.62
399.492	483.62
399.717	511.62
399.941	538.62
400.165	544.62
400.389	574.62
400.613	525.62
400.837	491.62
401.062	478.62
401.286	472.62
401.51	468.62
401.734	442.62
401.958	470.62
402.182	453.62
402.406	464.62
402.63	450.62
402.854	480.62
403.078	454.62
403.302	489.62
403.526	468.62
403.75	478.62
403.974	463.62
404.198	456.62
404.422	442.62
404.645	490.62
404.869	492.62
405.093	515.62
405.317	521.62
405.541	538.62
405.765	512.62
405.988	523.62
406.212	502.62
406.436	522.62
406.66	539.62
406.883	536.62
407.107	526.62
407.331	564.62
407.555	644.62
407.778	634.62
408.002	574.62
408.226	545.62
408.449	531.62
408.673	522.62
408.896	558.62
409.12	576.62
409.344	570.62
409.567	523.62
409.791	508.62
410.014	480.62
410.238	453.62
410.461	453.62
410.685	471.62
410.908	494.62
411.132	516.62
411.355	546.62
411.578	538.62
411.802	484.62
412.025	480.62
412.249	488.62
412.472	490.62
412.695	501.62
412.919	476.62
413.142	496.62
413.365	465.62
413.589	430.62
413.812	429.62
414.035	442.62
414.258	440.62
414.482	453.62
414.705	420.62
414.928	423.62
415.151	434.62
415.374	424.62
415.597	422.62
415.821	428.62
416.044	433.62
416.267	452.62
416.49	424.62
416.713	428.62
416.936	458.62
417.159	448.62
417.382	456.62
417.605	453.62
417.828	449.62
418.051	474.62
418.274	459.62
418.497	449.62
418.72	444.62
418.943	426.62
419.166	448.62
419.389	464.62
419.611	482.62
419.834	462.62
420.057	471.62
420.28	452.62
420.503	455.62
420.726	489.62
420.948	490.62
421.171	546.62
421.394	538.62
421.617	496.62
421.839	470.62
422.062	491.62
422.285	474.62
422.507	551.62
422.73	632.62
422.953	602.62
423.175	512.62
423.398	499.62
423.621	484.62
423.843	514.62
424.066	518.62
424.288	528.62
424.511	520.62
424.733	587.62
424.956	673.62
425.178	620.62
425.401	646.62
425.623	637.62
425.846	560.62
426.068	525.62
426.291	520.62
426.513	522.62
426.735	526.62
426.958	582.62
427.18	657.62
427.402	756.62
427.625	872.62
427.847	760.62
428.069	626.62
428.292	547.62
428.514	527.62
428.736	486.62
428.958	498.62
429.181	488.62
429.403	456.62
429.625	480.62
429.847	533.62
430.069	582.62
430.292	585.62
430.514	476.62
430.736	479.62
430.958	450.62
431.18	480.62
431.402	437.62
431.624	420.62
431.846	432.62
432.068	448.62
432.29	443.62
432.512	448.62
432.734	475.62
432.956	459.62
433.178	476.62
433.4	459.62
433.622	457.62
433.844	453.62
434.066	441.62
434.287	450.62
434.509	448.62
434.731	437.62
434.953	458.62
435.175	475.62
435.397	518.62
435.618	514.62
435.84	539.62
436.062	658.62
436.284	716.62
436.505	592.62
436.727	542.62
436.949	477.62
437.17	489.62
437.392	487.62
437.614	477.62
437.835	535.62
438.057	628.62
438.278	719.62
438.5	733.62
438.721	780.62
438.943	746.62
439.165	586.62
439.386	564.62
439.608	522.62
439.829	522.62
440.05	567.62
440.272	605.62
440.493	571.62
440.715	522.62
440.936	504.62
441.158	473.62
441.379	478.62
441.6	506.62
441.822	506.62
442.043	540.62
442.264	651.62
442.486	706.62
442.707	576.62
442.928	550.62
443.149	537.62
443.371	580.62
443.592	620.62
443.813	702.62
444.034	744.62
444.255	612.62
444.476	544.62
444.698	537.62
444.919	512.62
445.14	599.62
445.361	574.62
445.582	569.62
445.803	618.62
446.024	742.62
446.245	734.62
446.466	674.62
446.687	571.62
446.908	512.62
447.129	507.62
447.35	476.62
447.571	464.62
447.792	483.62
448.013	480.62
448.234	492.62
448.455	556.62
448.675	674.62
448.896	772.62
449.117	674.62
449.338	611.62
449.559	716.62
449.779	842.62
450	670.62
450.221	543.62
450.442	519.62
450.662	491.62
450.883	484.62
451.104	485.62
451.324	499.62
451.545	448.62
451.766	458.62
451.986	436.62
452.207	424.62
452.428	443.62
452.648	426.62
452.869	438.62
453.089	428.62
453.31	465.62
453.53	451.62
453.751	432.62
453.971	445.62
454.192	465.62
454.412	444.62
454.633	406.62
454.853	426.62
455.073	422.62
455.294	462.62
455.514	531.62
455.734	530.62
455.955	443.62
456.175	398.62
456.395	401.62
456.616	388.62
456.836	396.62
457.056	401.62
457.276	415.62
457.497	387.62
457.717	383.62
457.937	413.62
458.157	405.62
458.377	412.62
458.598	440.62
458.818	480.62
459.038	584.62
459.258	620.62
459.478	484.62
459.698	447.62
459.918	428.62
460.138	442.62
460.358	427.62
460.578	437.62
460.798	452.62
461.018	438.62
461.238	454.62
461.458	443.62
461.678	421.62
461.898	439.62
462.118	425.62
462.338	434.62
462.558	446.62
462.777	439.62
462.997	458.62
463.217	479.62
463.437	459.62
463.657	460.62
463.876	460.62
464.096	477.62
464.316	469.62
464.536	477.62
464.755	466.62
464.975	495.62
465.195	520.62
465.414	613.62
465.634	521.62
465.854	499.62
466.073	446.62
466.293	432.62
466.512	453.62
466.732	427.62
466.951	440.62
467.171	425.62
467.391	411.62
467.61	434.62
467.829	441.62
468.049	423.62
468.268	429.62
468.488	437.62
468.707	409.62
468.927	390.62
469.146	419.62
469.365	416.62
469.585	423.62
469.804	415.62
470.023	440.62
470.243	438.62
470.462	427.62
470.681	460.62
470.901	451.62
471.12	423.62
471.339	442.62
471.558	447.62
471.777	430.62
471.997	444.62
472.216	428.62
472.435	445.62
472.654	440.62
472.873	432.62
473.092	441.62
473.311	434.62
473.53	421.62
473.749	445.62
473.968	509.62
474.187	610.62
474.406	644.62
474.625	501.62
474.844	461.62
475.063	450.62
475.282	429.62
475.501	433.62
475.72	464.62
475.939	445.62
476.158	427.62
476.377	430.62
476.596	453.62
476.814	462.62
477.033	457.62
477.252	470.62
477.471	446.62
477.69	490.62
477.908	489.62
478.127	468.62
478.346	468.62
478.564	488.62
478.783	480.62
479.002	494.62
479.22	480.62
479.439	501.62
479.658	508.62
479.876	529.62
480.095	537.62
480.313	542.62
480.532	529.62
480.751	532.62
480.969	538.62
481.188	544.62
481.406	585.62
481.624	529.62
481.843	522.62
482.061	520.62
482.28	514.62
482.498	502.62
482.717	500.62
482.935	498.62
483.153	482.62
483.372	518.62
483.59	490.62
483.808	496.62
484.027	513.62
484.245	500.62
484.463	508.62
484.681	498.62
484.9	501.62
485.118	510.62
485.336	537.62
485.554	528.62
485.772	520.62
485.99	513.62
486.209	521.62
486.427	544.62
486.645	549.62
486.863	574.62
487.081	579.62
487.299	544.62
487.517	548.62
487.735	544.62
487.953	561.62
488.171	556.62
488.389	568.62
488.607	568.62
488.825	553.62
489.043	526.62
489.261	576.62
489.479	578.62
489.696	565.62
489.914	559.62
490.132	563.62
490.35	562.62
490.568	591.62
490.786	597.62
491.003	580.62
491.221	603.62
491.439	613.62
491.657	630.62
491.874	627.62
492.092	613.62
492.31	632.62
492.527	642.62
492.745	618.62
492.963	628.62
493.18	654.62
493.398	641.62
493.615	655.62
493.833	645.62
494.05	646.62
494.268	635.62
494.485	640.62
494.703	644.62
494.92	639.62
495.138	654.62
495.355	666.62
495.573	646.62
495.79	640.62
496.008	660.62
496.225	640.62
496.442	646.62
496.66	674.62
496.877	681.62
497.094	672.62
497.312	672.62
497.529	678.62
497.746	694.62
497.963	693.62
498.181	732.62
498.398	722.62
498.615	718.62
498.832	728.62
499.049	721.62
499.267	740.62
499.484	775.62
499.701	764.62
499.918	795.62
500.135	830.62
500.352	838.62
500.569	830.62
500.786	860.62
501.003	841.62
501.22	848.62
501.437	814.62
501.654	813.62
501.871	789.62
