Data from 1989.PennyLincolnUp.Lamp.En5.5.200Scan.071819.P2_HRD10591_17-24-27-973.txt Node
Date: Thu Jul 18 17:24:27 EDT 2019
User: cochatt
Spectrometer: HR+D1059
Trigger mode: 1
Integration Time (sec): 1.000000E-1
Scans to average: 1
Electric dark correction enabled: true
Nonlinearity correction enabled: false
Boxcar width: 0
XAxis mode: Wavelengths
Number of Pixels in Spectrum: 2048
>>>>>Begin Spectral Data<<<<<
223.165	-22.19
223.4	-22.19
223.635	-22.19
223.869	-28.19
224.104	-20.19
224.338	-4.19
224.573	-29.19
224.808	-18.19
225.042	-5.19
225.277	-4.19
225.511	-1.19
225.746	11.81
225.98	17.81
226.215	12.81
226.449	14.81
226.683	24.81
226.918	15.81
227.152	34.81
227.387	48.81
227.621	42.81
227.856	40.81
228.09	37.81
228.324	40.81
228.559	62.81
228.793	79.81
229.027	102.81
229.262	107.81
229.496	108.81
229.73	127.81
229.964	150.81
230.199	142.81
230.433	124.81
230.667	108.81
230.901	119.81
231.136	113.81
231.37	117.81
231.604	120.81
231.838	110.81
232.072	102.81
232.306	115.81
232.541	103.81
232.775	116.81
233.009	129.81
233.243	118.81
233.477	113.81
233.711	115.81
233.945	123.81
234.179	120.81
234.413	122.81
234.647	111.81
234.881	103.81
235.115	128.81
235.349	130.81
235.583	124.81
235.817	107.81
236.051	117.81
236.285	142.81
236.519	124.81
236.753	143.81
236.987	140.81
237.221	170.81
237.455	242.81
237.689	210.81
237.922	132.81
238.156	125.81
238.39	121.81
238.624	136.81
238.858	138.81
239.091	131.81
239.325	132.81
239.559	142.81
239.793	121.81
240.027	136.81
240.26	138.81
240.494	163.81
240.728	143.81
240.961	156.81
241.195	150.81
241.429	124.81
241.662	138.81
241.896	126.81
242.13	133.81
242.363	127.81
242.597	141.81
242.83	130.81
243.064	138.81
243.298	139.81
243.531	132.81
243.765	138.81
243.998	133.81
244.232	151.81
244.465	158.81
244.699	155.81
244.932	136.81
245.166	144.81
245.399	140.81
245.633	164.81
245.866	149.81
246.099	140.81
246.333	154.81
246.566	154.81
246.8	166.81
247.033	163.81
247.266	182.81
247.5	179.81
247.733	181.81
247.966	178.81
248.2	171.81
248.433	184.81
248.666	195.81
248.899	202.81
249.133	211.81
249.366	214.81
249.599	207.81
249.832	206.81
250.066	182.81
250.299	190.81
250.532	188.81
250.765	215.81
250.998	235.81
251.231	248.81
251.465	246.81
251.698	234.81
251.931	217.81
252.164	216.81
252.397	232.81
252.63	202.81
252.863	214.81
253.096	242.81
253.329	262.81
253.562	260.81
253.795	247.81
254.028	252.81
254.261	258.81
254.494	262.81
254.727	278.81
254.96	313.81
255.193	298.81
255.426	286.81
255.659	254.81
255.892	256.81
256.124	240.81
256.357	239.81
256.59	242.81
256.823	236.81
257.056	223.81
257.289	212.81
257.521	225.81
257.754	216.81
257.987	223.81
258.22	215.81
258.452	233.81
258.685	208.81
258.918	220.81
259.151	233.81
259.383	218.81
259.616	252.81
259.849	228.81
260.081	261.81
260.314	283.81
260.547	281.81
260.779	272.81
261.012	247.81
261.244	240.81
261.477	244.81
261.71	244.81
261.942	256.81
262.175	260.81
262.407	260.81
262.64	239.81
262.872	214.81
263.105	240.81
263.337	224.81
263.57	230.81
263.802	230.81
264.035	223.81
264.267	242.81
264.499	217.81
264.732	219.81
264.964	240.81
265.197	227.81
265.429	219.81
265.661	230.81
265.894	227.81
266.126	235.81
266.358	234.81
266.591	232.81
266.823	244.81
267.055	235.81
267.287	247.81
267.52	228.81
267.752	258.81
267.984	234.81
268.216	262.81
268.448	252.81
268.681	254.81
268.913	254.81
269.145	269.81
269.377	296.81
269.609	307.81
269.841	278.81
270.073	299.81
270.306	321.81
270.538	341.81
270.77	362.81
271.002	336.81
271.234	333.81
271.466	334.81
271.698	347.81
271.93	352.81
272.162	344.81
272.394	360.81
272.626	329.81
272.858	302.81
273.09	314.81
273.322	305.81
273.553	291.81
273.785	293.81
274.017	297.81
274.249	284.81
274.481	283.81
274.713	269.81
274.945	291.81
275.176	291.81
275.408	313.81
275.64	291.81
275.872	276.81
276.104	276.81
276.335	278.81
276.567	296.81
276.799	290.81
277.031	339.81
277.262	338.81
277.494	343.81
277.726	349.81
277.957	304.81
278.189	302.81
278.421	311.81
278.652	279.81
278.884	292.81
279.115	286.81
279.347	296.81
279.579	295.81
279.81	293.81
280.042	280.81
280.273	288.81
280.505	289.81
280.736	271.81
280.968	284.81
281.199	279.81
281.431	270.81
281.662	290.81
281.894	270.81
282.125	291.81
282.356	310.81
282.588	338.81
282.819	339.81
283.051	308.81
283.282	296.81
283.513	293.81
283.745	286.81
283.976	288.81
284.207	303.81
284.439	301.81
284.67	315.81
284.901	306.81
285.132	289.81
285.364	289.81
285.595	290.81
285.826	276.81
286.057	296.81
286.288	318.81
286.52	302.81
286.751	306.81
286.982	300.81
287.213	312.81
287.444	284.81
287.675	304.81
287.906	321.81
288.138	329.81
288.369	327.81
288.6	337.81
288.831	326.81
289.062	304.81
289.293	312.81
289.524	307.81
289.755	300.81
289.986	293.81
290.217	306.81
290.448	314.81
290.679	307.81
290.91	318.81
291.141	304.81
291.371	296.81
291.602	308.81
291.833	306.81
292.064	308.81
292.295	309.81
292.526	317.81
292.757	303.81
292.987	292.81
293.218	307.81
293.449	292.81
293.68	312.81
293.91	306.81
294.141	306.81
294.372	310.81
294.603	314.81
294.833	312.81
295.064	311.81
295.295	313.81
295.525	310.81
295.756	313.81
295.987	328.81
296.217	362.81
296.448	372.81
296.679	323.81
296.909	313.81
297.14	299.81
297.37	307.81
297.601	323.81
297.831	319.81
298.062	318.81
298.292	327.81
298.523	325.81
298.753	321.81
298.984	294.81
299.214	312.81
299.445	309.81
299.675	338.81
299.905	327.81
300.136	338.81
300.366	322.81
300.597	323.81
300.827	324.81
301.057	343.81
301.288	330.81
301.518	361.81
301.748	344.81
301.979	357.81
302.209	366.81
302.439	354.81
302.669	328.81
302.9	335.81
303.13	335.81
303.36	334.81
303.59	347.81
303.82	360.81
304.051	340.81
304.281	338.81
304.511	340.81
304.741	348.81
304.971	352.81
305.201	344.81
305.431	347.81
305.661	355.81
305.891	342.81
306.121	360.81
306.352	353.81
306.582	350.81
306.812	349.81
307.042	337.81
307.272	355.81
307.502	354.81
307.731	340.81
307.961	369.81
308.191	368.81
308.421	343.81
308.651	361.81
308.881	352.81
309.111	371.81
309.341	359.81
309.571	394.81
309.8	408.81
310.03	388.81
310.26	416.81
310.49	382.81
310.72	424.81
310.949	451.81
311.179	437.81
311.409	420.81
311.639	396.81
311.868	394.81
312.098	408.81
312.328	437.81
312.557	435.81
312.787	462.81
313.017	462.81
313.246	414.81
313.476	398.81
313.706	412.81
313.935	414.81
314.165	434.81
314.394	420.81
314.624	437.81
314.853	418.81
315.083	424.81
315.312	414.81
315.542	400.81
315.771	393.81
316.001	403.81
316.23	402.81
316.46	406.81
316.689	393.81
316.919	417.81
317.148	418.81
317.377	435.81
317.607	412.81
317.836	410.81
318.065	418.81
318.295	390.81
318.524	421.81
318.753	420.81
318.983	412.81
319.212	412.81
319.441	424.81
319.67	430.81
319.9	414.81
320.129	417.81
320.358	401.81
320.587	410.81
320.816	423.81
321.046	409.81
321.275	423.81
321.504	418.81
321.733	437.81
321.962	436.81
322.191	452.81
322.42	471.81
322.649	476.81
322.878	500.81
323.108	487.81
323.337	528.81
323.566	559.81
323.795	592.81
324.024	645.81
324.253	784.81
324.482	1122.81
324.71	1751.81
324.939	2515.81
325.168	2184.81
325.397	1150.81
325.626	735.81
325.855	628.81
326.084	562.81
326.313	545.81
326.542	555.81
326.77	638.81
326.999	713.81
327.228	1032.81
327.457	1511.81
327.686	1880.81
327.914	1290.81
328.143	836.81
328.372	661.81
328.6	656.81
328.829	625.81
329.058	630.81
329.287	640.81
329.515	602.81
329.744	542.81
329.972	560.81
330.201	537.81
330.43	574.81
330.658	604.81
330.887	656.81
331.115	651.81
331.344	562.81
331.572	526.81
331.801	530.81
332.03	531.81
332.258	509.81
332.486	481.81
332.715	472.81
332.943	491.81
333.172	486.81
333.4	499.81
333.629	477.81
333.857	476.81
334.085	495.81
334.314	499.81
334.542	481.81
334.771	488.81
334.999	480.81
335.227	476.81
335.455	472.81
335.684	445.81
335.912	455.81
336.14	463.81
336.369	440.81
336.597	449.81
336.825	465.81
337.053	486.81
337.281	448.81
337.51	440.81
337.738	437.81
337.966	454.81
338.194	454.81
338.422	478.81
338.65	460.81
338.878	462.81
339.106	467.81
339.334	475.81
339.562	444.81
339.79	427.81
340.018	425.81
340.246	456.81
340.474	447.81
340.702	444.81
340.93	463.81
341.158	454.81
341.386	450.81
341.614	464.81
341.842	451.81
342.07	453.81
342.298	419.81
342.526	420.81
342.754	444.81
342.981	432.81
343.209	444.81
343.437	451.81
343.665	432.81
343.893	438.81
344.12	446.81
344.348	443.81
344.576	444.81
344.804	467.81
345.031	469.81
345.259	454.81
345.487	466.81
345.714	442.81
345.942	442.81
346.17	448.81
346.397	432.81
346.625	444.81
346.853	423.81
347.08	427.81
347.308	446.81
347.535	430.81
347.763	442.81
347.99	458.81
348.218	446.81
348.445	430.81
348.673	462.81
348.9	438.81
349.128	441.81
349.355	424.81
349.583	423.81
349.81	435.81
350.037	430.81
350.265	437.81
350.492	411.81
350.72	425.81
350.947	440.81
351.174	443.81
351.402	444.81
351.629	458.81
351.856	435.81
352.083	456.81
352.311	469.81
352.538	455.81
352.765	479.81
352.992	433.81
353.22	427.81
353.447	430.81
353.674	424.81
353.901	394.81
354.128	418.81
354.355	389.81
354.583	418.81
354.81	409.81
355.037	397.81
355.264	376.81
355.491	380.81
355.718	366.81
355.945	387.81
356.172	383.81
356.399	404.81
356.626	394.81
356.853	388.81
357.08	401.81
357.307	383.81
357.534	386.81
357.761	368.81
357.988	403.81
358.215	406.81
358.441	416.81
358.668	395.81
358.895	424.81
359.122	409.81
359.349	414.81
359.576	437.81
359.802	469.81
360.029	497.81
360.256	498.81
360.483	458.81
360.709	440.81
360.936	420.81
361.163	438.81
361.39	434.81
361.616	425.81
361.843	437.81
362.07	412.81
362.296	427.81
362.523	421.81
362.749	434.81
362.976	418.81
363.203	399.81
363.429	400.81
363.656	406.81
363.882	405.81
364.109	395.81
364.335	397.81
364.562	399.81
364.788	387.81
365.015	415.81
365.241	405.81
365.468	412.81
365.694	413.81
365.92	433.81
366.147	406.81
366.373	428.81
366.599	405.81
366.826	388.81
367.052	398.81
367.278	394.81
367.505	395.81
367.731	405.81
367.957	392.81
368.184	408.81
368.41	416.81
368.636	408.81
368.862	404.81
369.089	403.81
369.315	389.81
369.541	390.81
369.767	386.81
369.993	407.81
370.219	386.81
370.445	396.81
370.672	381.81
370.898	400.81
371.124	391.81
371.35	417.81
371.576	405.81
371.802	397.81
372.028	379.81
372.254	389.81
372.48	389.81
372.706	395.81
372.932	390.81
373.158	386.81
373.384	398.81
373.61	395.81
373.835	398.81
374.061	379.81
374.287	394.81
374.513	414.81
374.739	392.81
374.965	399.81
375.191	385.81
375.416	407.81
375.642	394.81
375.868	395.81
376.094	398.81
376.319	403.81
376.545	399.81
376.771	390.81
376.997	396.81
377.222	371.81
377.448	374.81
377.674	380.81
377.899	353.81
378.125	386.81
378.35	376.81
378.576	377.81
378.802	372.81
379.027	381.81
379.253	398.81
379.478	388.81
379.704	384.81
379.929	391.81
380.155	392.81
380.38	392.81
380.606	397.81
380.831	386.81
381.057	390.81
381.282	376.81
381.507	382.81
381.733	373.81
381.958	402.81
382.184	393.81
382.409	384.81
382.634	371.81
382.86	413.81
383.085	408.81
383.31	394.81
383.535	405.81
383.761	397.81
383.986	388.81
384.211	398.81
384.436	410.81
384.662	411.81
384.887	408.81
385.112	409.81
385.337	418.81
385.562	408.81
385.787	426.81
386.013	436.81
386.238	422.81
386.463	416.81
386.688	395.81
386.913	402.81
387.138	394.81
387.363	408.81
387.588	414.81
387.813	402.81
388.038	390.81
388.263	398.81
388.488	400.81
388.713	413.81
388.938	434.81
389.163	420.81
389.387	414.81
389.612	390.81
389.837	424.81
390.062	423.81
390.287	405.81
390.512	410.81
390.736	418.81
390.961	383.81
391.186	418.81
391.411	388.81
391.636	412.81
391.86	419.81
392.085	425.81
392.31	422.81
392.534	420.81
392.759	422.81
392.984	418.81
393.208	400.81
393.433	411.81
393.658	401.81
393.882	396.81
394.107	409.81
394.331	411.81
394.556	402.81
394.78	391.81
395.005	406.81
395.229	412.81
395.454	391.81
395.678	417.81
395.903	420.81
396.127	440.81
396.352	448.81
396.576	422.81
396.801	412.81
397.025	418.81
397.249	450.81
397.474	439.81
397.698	441.81
397.922	439.81
398.147	463.81
398.371	451.81
398.595	462.81
398.82	452.81
399.044	458.81
399.268	477.81
399.492	493.81
399.717	510.81
399.941	545.81
400.165	565.81
400.389	591.81
400.613	541.81
400.837	494.81
401.062	470.81
401.286	460.81
401.51	479.81
401.734	472.81
401.958	469.81
402.182	471.81
402.406	494.81
402.63	496.81
402.854	469.81
403.078	470.81
403.302	497.81
403.526	494.81
403.75	470.81
403.974	471.81
404.198	462.81
404.422	452.81
404.645	481.81
404.869	471.81
405.093	517.81
405.317	512.81
405.541	541.81
405.765	535.81
405.988	505.81
406.212	523.81
406.436	535.81
406.66	561.81
406.883	508.81
407.107	535.81
407.331	592.81
407.555	649.81
407.778	658.81
408.002	579.81
408.226	550.81
408.449	523.81
408.673	524.81
408.896	594.81
409.12	595.81
409.344	559.81
409.567	526.81
409.791	499.81
410.014	473.81
410.238	460.81
410.461	471.81
410.685	466.81
410.908	500.81
411.132	534.81
411.355	578.81
411.578	527.81
411.802	471.81
412.025	469.81
412.249	481.81
412.472	496.81
412.695	492.81
412.919	476.81
413.142	470.81
413.365	448.81
413.589	448.81
413.812	471.81
414.035	459.81
414.258	451.81
414.482	438.81
414.705	466.81
414.928	467.81
415.151	434.81
415.374	450.81
415.597	442.81
415.821	426.81
416.044	446.81
416.267	452.81
416.49	445.81
416.713	429.81
416.936	443.81
417.159	452.81
417.382	468.81
417.605	457.81
417.828	456.81
418.051	477.81
418.274	472.81
418.497	454.81
418.72	462.81
418.943	450.81
419.166	468.81
419.389	464.81
419.611	487.81
419.834	466.81
420.057	465.81
420.28	468.81
420.503	458.81
420.726	457.81
420.948	483.81
421.171	518.81
421.394	548.81
421.617	496.81
421.839	492.81
422.062	476.81
422.285	514.81
422.507	547.81
422.73	615.81
422.953	593.81
423.175	535.81
423.398	494.81
423.621	509.81
423.843	528.81
424.066	523.81
424.288	514.81
424.511	531.81
424.733	601.81
424.956	682.81
425.178	658.81
425.401	653.81
425.623	642.81
425.846	571.81
426.068	539.81
426.291	522.81
426.513	501.81
426.735	534.81
426.958	574.81
427.18	675.81
427.402	790.81
427.625	879.81
427.847	754.81
428.069	632.81
428.292	556.81
428.514	533.81
428.736	506.81
428.958	490.81
429.181	491.81
429.403	469.81
429.625	505.81
429.847	520.81
430.069	604.81
430.292	603.81
430.514	508.81
430.736	476.81
430.958	495.81
431.18	446.81
431.402	462.81
431.624	426.81
431.846	448.81
432.068	459.81
432.29	449.81
432.512	461.81
432.734	467.81
432.956	456.81
433.178	462.81
433.4	468.81
433.622	472.81
433.844	461.81
434.066	432.81
434.287	443.81
434.509	440.81
434.731	466.81
434.953	475.81
435.175	483.81
435.397	532.81
435.618	534.81
435.84	546.81
436.062	655.81
436.284	716.81
436.505	625.81
436.727	535.81
436.949	514.81
437.17	489.81
437.392	484.81
437.614	512.81
437.835	533.81
438.057	615.81
438.278	721.81
438.5	706.81
438.721	801.81
438.943	793.81
439.165	625.81
439.386	540.81
439.608	544.81
439.829	522.81
440.05	575.81
440.272	618.81
440.493	588.81
440.715	537.81
440.936	514.81
441.158	486.81
441.379	476.81
441.6	493.81
441.822	534.81
442.043	547.81
442.264	651.81
442.486	690.81
442.707	602.81
442.928	549.81
443.149	531.81
443.371	558.81
443.592	614.81
443.813	708.81
444.034	750.81
444.255	628.81
444.476	556.81
444.698	544.81
444.919	545.81
445.14	611.81
445.361	561.81
445.582	584.81
445.803	649.81
446.024	768.81
446.245	751.81
446.466	691.81
446.687	594.81
446.908	549.81
447.129	514.81
447.35	466.81
447.571	488.81
447.792	482.81
448.013	498.81
448.234	511.81
448.455	585.81
448.675	666.81
448.896	778.81
449.117	683.81
449.338	601.81
449.559	728.81
449.779	832.81
450	657.81
450.221	548.81
450.442	508.81
450.662	483.81
450.883	477.81
451.104	503.81
451.324	511.81
451.545	456.81
451.766	458.81
451.986	450.81
452.207	419.81
452.428	421.81
452.648	433.81
452.869	414.81
453.089	459.81
453.31	436.81
453.53	463.81
453.751	443.81
453.971	432.81
454.192	469.81
454.412	452.81
454.633	438.81
454.853	419.81
455.073	434.81
455.294	446.81
455.514	538.81
455.734	522.81
455.955	449.81
456.175	396.81
456.395	412.81
456.616	409.81
456.836	404.81
457.056	401.81
457.276	376.81
457.497	400.81
457.717	406.81
457.937	410.81
458.157	438.81
458.377	406.81
458.598	433.81
458.818	497.81
459.038	606.81
459.258	611.81
459.478	495.81
459.698	477.81
459.918	455.81
460.138	445.81
460.358	464.81
460.578	428.81
460.798	447.81
461.018	442.81
461.238	452.81
461.458	435.81
461.678	424.81
461.898	434.81
462.118	433.81
462.338	458.81
462.558	458.81
462.777	457.81
462.997	459.81
463.217	468.81
463.437	488.81
463.657	482.81
463.876	472.81
464.096	460.81
464.316	482.81
464.536	472.81
464.755	461.81
464.975	487.81
465.195	531.81
465.414	604.81
465.634	548.81
465.854	482.81
466.073	459.81
466.293	448.81
466.512	445.81
466.732	430.81
466.951	422.81
467.171	438.81
467.391	441.81
467.61	439.81
467.829	441.81
468.049	441.81
468.268	464.81
468.488	436.81
468.707	441.81
468.927	404.81
469.146	409.81
469.365	416.81
469.585	428.81
469.804	431.81
470.023	440.81
470.243	424.81
470.462	428.81
470.681	468.81
470.901	454.81
471.12	437.81
471.339	463.81
471.558	451.81
471.777	464.81
471.997	455.81
472.216	430.81
472.435	428.81
472.654	429.81
472.873	449.81
473.092	426.81
473.311	447.81
473.53	436.81
473.749	464.81
473.968	478.81
474.187	608.81
474.406	639.81
474.625	517.81
474.844	468.81
475.063	443.81
475.282	441.81
475.501	435.81
475.72	450.81
475.939	459.81
476.158	439.81
476.377	455.81
476.596	440.81
476.814	435.81
477.033	470.81
477.252	472.81
477.471	462.81
477.69	456.81
477.908	460.81
478.127	481.81
478.346	463.81
478.564	482.81
478.783	490.81
479.002	483.81
479.22	488.81
479.439	509.81
479.658	530.81
479.876	528.81
480.095	536.81
480.313	531.81
480.532	543.81
480.751	510.81
480.969	529.81
481.188	545.81
481.406	581.81
481.624	537.81
481.843	488.81
482.061	517.81
482.28	508.81
482.498	504.81
482.717	510.81
482.935	534.81
483.153	518.81
483.372	511.81
483.59	523.81
483.808	519.81
484.027	501.81
484.245	498.81
484.463	520.81
484.681	548.81
484.9	544.81
485.118	512.81
485.336	539.81
485.554	518.81
485.772	525.81
485.99	521.81
486.209	526.81
486.427	539.81
486.645	558.81
486.863	592.81
487.081	566.81
487.299	554.81
487.517	574.81
487.735	549.81
487.953	567.81
488.171	566.81
488.389	575.81
488.607	568.81
488.825	552.81
489.043	534.81
489.261	572.81
489.479	543.81
489.696	566.81
489.914	564.81
490.132	596.81
490.35	570.81
490.568	598.81
490.786	583.81
491.003	607.81
491.221	588.81
491.439	634.81
491.657	635.81
491.874	595.81
492.092	617.81
492.31	638.81
492.527	644.81
492.745	636.81
492.963	644.81
493.18	645.81
493.398	651.81
493.615	678.81
493.833	642.81
494.05	657.81
494.268	677.81
494.485	650.81
494.703	659.81
494.92	660.81
495.138	665.81
495.355	664.81
495.573	656.81
495.79	659.81
496.008	634.81
496.225	651.81
496.442	644.81
496.66	662.81
496.877	662.81
497.094	686.81
497.312	674.81
497.529	676.81
497.746	688.81
497.963	674.81
498.181	714.81
498.398	721.81
498.615	720.81
498.832	720.81
499.049	728.81
499.267	739.81
499.484	783.81
499.701	766.81
499.918	808.81
500.135	820.81
500.352	843.81
500.569	834.81
500.786	867.81
501.003	845.81
501.22	832.81
501.437	834.81
501.654	811.81
501.871	806.81
