Data from 1989.PennyLincolnUp.Lamp.En5.5.200Scan.071819.P2_HRD10591_17-23-26-973.txt Node
Date: Thu Jul 18 17:23:26 EDT 2019
User: cochatt
Spectrometer: HR+D1059
Trigger mode: 1
Integration Time (sec): 1.000000E-1
Scans to average: 1
Electric dark correction enabled: true
Nonlinearity correction enabled: false
Boxcar width: 0
XAxis mode: Wavelengths
Number of Pixels in Spectrum: 2048
>>>>>Begin Spectral Data<<<<<
223.165	-17.81
223.4	-17.81
223.635	-17.81
223.869	-4.81
224.104	-14.81
224.338	-0.81
224.573	-23.81
224.808	-8.81
225.042	-3.81
225.277	-14.81
225.511	10.19
225.746	-4.81
225.98	8.19
226.215	-3.81
226.449	13.19
226.683	22.19
226.918	13.19
227.152	31.19
227.387	28.19
227.621	44.19
227.856	44.19
228.09	51.19
228.324	41.19
228.559	56.19
228.793	47.19
229.027	97.19
229.262	107.19
229.496	110.19
229.73	115.19
229.964	141.19
230.199	117.19
230.433	124.19
230.667	102.19
230.901	107.19
231.136	106.19
231.37	113.19
231.604	109.19
231.838	108.19
232.072	101.19
232.306	116.19
232.541	123.19
232.775	113.19
233.009	117.19
233.243	116.19
233.477	122.19
233.711	106.19
233.945	111.19
234.179	113.19
234.413	131.19
234.647	116.19
234.881	114.19
235.115	126.19
235.349	99.19
235.583	130.19
235.817	107.19
236.051	136.19
236.285	97.19
236.519	112.19
236.753	121.19
236.987	147.19
237.221	162.19
237.455	210.19
237.689	173.19
237.922	126.19
238.156	136.19
238.39	147.19
238.624	134.19
238.858	114.19
239.091	119.19
239.325	117.19
239.559	122.19
239.793	118.19
240.027	130.19
240.26	140.19
240.494	161.19
240.728	150.19
240.961	139.19
241.195	139.19
241.429	127.19
241.662	142.19
241.896	130.19
242.13	125.19
242.363	142.19
242.597	138.19
242.83	142.19
243.064	132.19
243.298	120.19
243.531	149.19
243.765	126.19
243.998	142.19
244.232	136.19
244.465	132.19
244.699	131.19
244.932	156.19
245.166	148.19
245.399	149.19
245.633	157.19
245.866	153.19
246.099	131.19
246.333	142.19
246.566	154.19
246.8	164.19
247.033	151.19
247.266	150.19
247.5	156.19
247.733	161.19
247.966	158.19
248.2	183.19
248.433	172.19
248.666	171.19
248.899	180.19
249.133	185.19
249.366	215.19
249.599	200.19
249.832	187.19
250.066	176.19
250.299	171.19
250.532	167.19
250.765	205.19
250.998	217.19
251.231	218.19
251.465	197.19
251.698	204.19
251.931	189.19
252.164	205.19
252.397	203.19
252.63	227.19
252.863	200.19
253.096	224.19
253.329	221.19
253.562	229.19
253.795	203.19
254.028	202.19
254.261	210.19
254.494	244.19
254.727	261.19
254.96	280.19
255.193	256.19
255.426	246.19
255.659	242.19
255.892	220.19
256.124	222.19
256.357	218.19
256.59	224.19
256.823	197.19
257.056	210.19
257.289	198.19
257.521	207.19
257.754	205.19
257.987	212.19
258.22	212.19
258.452	192.19
258.685	214.19
258.918	204.19
259.151	219.19
259.383	217.19
259.616	221.19
259.849	214.19
260.081	231.19
260.314	261.19
260.547	242.19
260.779	232.19
261.012	247.19
261.244	231.19
261.477	215.19
261.71	223.19
261.942	221.19
262.175	225.19
262.407	226.19
262.64	216.19
262.872	218.19
263.105	218.19
263.337	223.19
263.57	217.19
263.802	216.19
264.035	186.19
264.267	225.19
264.499	216.19
264.732	218.19
264.964	227.19
265.197	214.19
265.429	218.19
265.661	213.19
265.894	210.19
266.126	221.19
266.358	216.19
266.591	218.19
266.823	227.19
267.055	231.19
267.287	235.19
267.52	225.19
267.752	229.19
267.984	231.19
268.216	225.19
268.448	231.19
268.681	230.19
268.913	252.19
269.145	271.19
269.377	258.19
269.609	269.19
269.841	270.19
270.073	259.19
270.306	282.19
270.538	290.19
270.77	317.19
271.002	275.19
271.234	295.19
271.466	312.19
271.698	295.19
271.93	311.19
272.162	325.19
272.394	305.19
272.626	287.19
272.858	262.19
273.09	298.19
273.322	265.19
273.553	274.19
273.785	260.19
274.017	246.19
274.249	268.19
274.481	265.19
274.713	266.19
274.945	274.19
275.176	254.19
275.408	259.19
275.64	248.19
275.872	246.19
276.104	260.19
276.335	263.19
276.567	265.19
276.799	271.19
277.031	294.19
277.262	304.19
277.494	288.19
277.726	292.19
277.957	273.19
278.189	290.19
278.421	269.19
278.652	257.19
278.884	252.19
279.115	266.19
279.347	261.19
279.579	280.19
279.81	280.19
280.042	268.19
280.273	255.19
280.505	280.19
280.736	263.19
280.968	254.19
281.199	265.19
281.431	274.19
281.662	253.19
281.894	276.19
282.125	269.19
282.356	269.19
282.588	309.19
282.819	297.19
283.051	288.19
283.282	264.19
283.513	272.19
283.745	257.19
283.976	271.19
284.207	291.19
284.439	281.19
284.67	259.19
284.901	278.19
285.132	270.19
285.364	281.19
285.595	273.19
285.826	274.19
286.057	273.19
286.288	278.19
286.52	294.19
286.751	287.19
286.982	258.19
287.213	277.19
287.444	283.19
287.675	284.19
287.906	303.19
288.138	282.19
288.369	296.19
288.6	311.19
288.831	298.19
289.062	284.19
289.293	297.19
289.524	300.19
289.755	275.19
289.986	270.19
290.217	281.19
290.448	288.19
290.679	277.19
290.91	280.19
291.141	305.19
291.371	284.19
291.602	280.19
291.833	291.19
292.064	274.19
292.295	299.19
292.526	276.19
292.757	289.19
292.987	280.19
293.218	289.19
293.449	306.19
293.68	292.19
293.91	268.19
294.141	286.19
294.372	289.19
294.603	292.19
294.833	283.19
295.064	272.19
295.295	290.19
295.525	267.19
295.756	322.19
295.987	311.19
296.217	323.19
296.448	312.19
296.679	296.19
296.909	297.19
297.14	277.19
297.37	309.19
297.601	291.19
297.831	302.19
298.062	304.19
298.292	288.19
298.523	294.19
298.753	301.19
298.984	278.19
299.214	288.19
299.445	289.19
299.675	298.19
299.905	302.19
300.136	297.19
300.366	306.19
300.597	295.19
300.827	317.19
301.057	322.19
301.288	320.19
301.518	309.19
301.748	317.19
301.979	312.19
302.209	317.19
302.439	320.19
302.669	318.19
302.9	304.19
303.13	306.19
303.36	341.19
303.59	342.19
303.82	349.19
304.051	340.19
304.281	337.19
304.511	306.19
304.741	320.19
304.971	327.19
305.201	330.19
305.431	328.19
305.661	349.19
305.891	327.19
306.121	314.19
306.352	338.19
306.582	324.19
306.812	325.19
307.042	329.19
307.272	305.19
307.502	329.19
307.731	324.19
307.961	322.19
308.191	323.19
308.421	327.19
308.651	338.19
308.881	341.19
309.111	333.19
309.341	349.19
309.571	339.19
309.8	344.19
310.03	354.19
310.26	347.19
310.49	364.19
310.72	372.19
310.949	364.19
311.179	383.19
311.409	368.19
311.639	346.19
311.868	354.19
312.098	357.19
312.328	369.19
312.557	382.19
312.787	392.19
313.017	388.19
313.246	392.19
313.476	357.19
313.706	361.19
313.935	363.19
314.165	381.19
314.394	387.19
314.624	390.19
314.853	358.19
315.083	368.19
315.312	371.19
315.542	369.19
315.771	366.19
316.001	360.19
316.23	357.19
316.46	380.19
316.689	378.19
316.919	366.19
317.148	393.19
317.377	376.19
317.607	387.19
317.836	390.19
318.065	374.19
318.295	381.19
318.524	368.19
318.753	376.19
318.983	379.19
319.212	369.19
319.441	376.19
319.67	377.19
319.9	364.19
320.129	362.19
320.358	355.19
320.587	372.19
320.816	384.19
321.046	397.19
321.275	387.19
321.504	401.19
321.733	389.19
321.962	373.19
322.191	406.19
322.42	412.19
322.649	426.19
322.878	422.19
323.108	444.19
323.337	445.19
323.566	452.19
323.795	490.19
324.024	526.19
324.253	620.19
324.482	872.19
324.71	1344.19
324.939	1864.19
325.168	1645.19
325.397	847.19
325.626	602.19
325.855	498.19
326.084	477.19
326.313	480.19
326.542	452.19
326.77	526.19
326.999	583.19
327.228	801.19
327.457	1173.19
327.686	1405.19
327.914	988.19
328.143	638.19
328.372	549.19
328.6	528.19
328.829	518.19
329.058	553.19
329.287	526.19
329.515	483.19
329.744	460.19
329.972	465.19
330.201	456.19
330.43	487.19
330.658	493.19
330.887	562.19
331.115	529.19
331.344	476.19
331.572	453.19
331.801	457.19
332.03	461.19
332.258	431.19
332.486	426.19
332.715	441.19
332.943	429.19
333.172	426.19
333.4	414.19
333.629	410.19
333.857	430.19
334.085	452.19
334.314	417.19
334.542	440.19
334.771	448.19
334.999	437.19
335.227	441.19
335.455	442.19
335.684	419.19
335.912	425.19
336.14	419.19
336.369	417.19
336.597	427.19
336.825	438.19
337.053	405.19
337.281	416.19
337.51	424.19
337.738	409.19
337.966	400.19
338.194	421.19
338.422	433.19
338.65	412.19
338.878	412.19
339.106	401.19
339.334	405.19
339.562	407.19
339.79	418.19
340.018	396.19
340.246	423.19
340.474	398.19
340.702	418.19
340.93	411.19
341.158	389.19
341.386	398.19
341.614	421.19
341.842	411.19
342.07	405.19
342.298	406.19
342.526	419.19
342.754	384.19
342.981	386.19
343.209	393.19
343.437	403.19
343.665	389.19
343.893	415.19
344.12	447.19
344.348	405.19
344.576	409.19
344.804	426.19
345.031	415.19
345.259	418.19
345.487	436.19
345.714	404.19
345.942	405.19
346.17	406.19
346.397	376.19
346.625	374.19
346.853	402.19
347.08	389.19
347.308	370.19
347.535	410.19
347.763	414.19
347.99	393.19
348.218	418.19
348.445	424.19
348.673	406.19
348.9	396.19
349.128	395.19
349.355	397.19
349.583	371.19
349.81	382.19
350.037	397.19
350.265	394.19
350.492	376.19
350.72	383.19
350.947	377.19
351.174	388.19
351.402	409.19
351.629	411.19
351.856	402.19
352.083	408.19
352.311	403.19
352.538	421.19
352.765	404.19
352.992	402.19
353.22	388.19
353.447	408.19
353.674	390.19
353.901	386.19
354.128	362.19
354.355	365.19
354.583	371.19
354.81	372.19
355.037	373.19
355.264	374.19
355.491	362.19
355.718	355.19
355.945	374.19
356.172	378.19
356.399	365.19
356.626	360.19
356.853	371.19
357.08	375.19
357.307	362.19
357.534	352.19
357.761	369.19
357.988	373.19
358.215	359.19
358.441	356.19
358.668	362.19
358.895	369.19
359.122	380.19
359.349	374.19
359.576	369.19
359.802	406.19
360.029	414.19
360.256	438.19
360.483	419.19
360.709	379.19
360.936	380.19
361.163	400.19
361.39	388.19
361.616	401.19
361.843	378.19
362.07	388.19
362.296	380.19
362.523	382.19
362.749	388.19
362.976	396.19
363.203	397.19
363.429	382.19
363.656	368.19
363.882	376.19
364.109	356.19
364.335	372.19
364.562	373.19
364.788	377.19
365.015	363.19
365.241	375.19
365.468	371.19
365.694	371.19
365.92	361.19
366.147	331.19
366.373	361.19
366.599	371.19
366.826	365.19
367.052	368.19
367.278	361.19
367.505	363.19
367.731	383.19
367.957	367.19
368.184	352.19
368.41	371.19
368.636	376.19
368.862	372.19
369.089	377.19
369.315	377.19
369.541	373.19
369.767	375.19
369.993	377.19
370.219	395.19
370.445	366.19
370.672	362.19
370.898	366.19
371.124	377.19
371.35	356.19
371.576	354.19
371.802	366.19
372.028	360.19
372.254	368.19
372.48	365.19
372.706	374.19
372.932	345.19
373.158	368.19
373.384	363.19
373.61	366.19
373.835	376.19
374.061	363.19
374.287	383.19
374.513	364.19
374.739	378.19
374.965	364.19
375.191	366.19
375.416	369.19
375.642	370.19
375.868	351.19
376.094	373.19
376.319	376.19
376.545	355.19
376.771	351.19
376.997	353.19
377.222	362.19
377.448	357.19
377.674	361.19
377.899	364.19
378.125	362.19
378.35	363.19
378.576	353.19
378.802	350.19
379.027	363.19
379.253	350.19
379.478	373.19
379.704	361.19
379.929	358.19
380.155	367.19
380.38	366.19
380.606	376.19
380.831	381.19
381.057	377.19
381.282	369.19
381.507	364.19
381.733	370.19
381.958	357.19
382.184	372.19
382.409	390.19
382.634	372.19
382.86	372.19
383.085	377.19
383.31	386.19
383.535	392.19
383.761	379.19
383.986	389.19
384.211	405.19
384.436	380.19
384.662	368.19
384.887	385.19
385.112	384.19
385.337	376.19
385.562	378.19
385.787	384.19
386.013	390.19
386.238	382.19
386.463	380.19
386.688	385.19
386.913	394.19
387.138	385.19
387.363	386.19
387.588	386.19
387.813	404.19
388.038	397.19
388.263	398.19
388.488	378.19
388.713	405.19
388.938	398.19
389.163	394.19
389.387	395.19
389.612	370.19
389.837	368.19
390.062	372.19
390.287	383.19
390.512	381.19
390.736	381.19
390.961	377.19
391.186	385.19
391.411	387.19
391.636	391.19
391.86	399.19
392.085	397.19
392.31	410.19
392.534	384.19
392.759	402.19
392.984	401.19
393.208	379.19
393.433	390.19
393.658	402.19
393.882	405.19
394.107	386.19
394.331	389.19
394.556	377.19
394.78	389.19
395.005	392.19
395.229	386.19
395.454	402.19
395.678	406.19
395.903	420.19
396.127	440.19
396.352	438.19
396.576	393.19
396.801	395.19
397.025	406.19
397.249	402.19
397.474	384.19
397.698	411.19
397.922	422.19
398.147	446.19
398.371	450.19
398.595	436.19
398.82	424.19
399.044	445.19
399.268	454.19
399.492	474.19
399.717	483.19
399.941	519.19
400.165	540.19
400.389	551.19
400.613	493.19
400.837	472.19
401.062	451.19
401.286	443.19
401.51	441.19
401.734	448.19
401.958	445.19
402.182	445.19
402.406	452.19
402.63	450.19
402.854	455.19
403.078	434.19
403.302	457.19
403.526	456.19
403.75	442.19
403.974	443.19
404.198	434.19
404.422	446.19
404.645	424.19
404.869	438.19
405.093	465.19
405.317	486.19
405.541	530.19
405.765	497.19
405.988	491.19
406.212	486.19
406.436	484.19
406.66	492.19
406.883	462.19
407.107	523.19
407.331	554.19
407.555	597.19
407.778	598.19
408.002	556.19
408.226	504.19
408.449	493.19
408.673	480.19
408.896	533.19
409.12	551.19
409.344	530.19
409.567	480.19
409.791	468.19
410.014	449.19
410.238	444.19
410.461	456.19
410.685	457.19
410.908	468.19
411.132	498.19
411.355	526.19
411.578	505.19
411.802	447.19
412.025	445.19
412.249	466.19
412.472	451.19
412.695	446.19
412.919	435.19
413.142	431.19
413.365	437.19
413.589	434.19
413.812	409.19
414.035	422.19
414.258	439.19
414.482	434.19
414.705	437.19
414.928	412.19
415.151	414.19
415.374	423.19
415.597	425.19
415.821	406.19
416.044	420.19
416.267	427.19
416.49	415.19
416.713	417.19
416.936	433.19
417.159	417.19
417.382	425.19
417.605	423.19
417.828	441.19
418.051	449.19
418.274	445.19
418.497	428.19
418.72	419.19
418.943	423.19
419.166	445.19
419.389	430.19
419.611	452.19
419.834	434.19
420.057	455.19
420.28	445.19
420.503	434.19
420.726	417.19
420.948	456.19
421.171	498.19
421.394	530.19
421.617	447.19
421.839	445.19
422.062	435.19
422.285	460.19
422.507	513.19
422.73	579.19
422.953	554.19
423.175	477.19
423.398	437.19
423.621	468.19
423.843	479.19
424.066	498.19
424.288	479.19
424.511	496.19
424.733	517.19
424.956	622.19
425.178	588.19
425.401	573.19
425.623	604.19
425.846	533.19
426.068	482.19
426.291	470.19
426.513	473.19
426.735	499.19
426.958	525.19
427.18	603.19
427.402	708.19
427.625	800.19
427.847	686.19
428.069	569.19
428.292	520.19
428.514	472.19
428.736	470.19
428.958	454.19
429.181	433.19
429.403	442.19
429.625	449.19
429.847	476.19
430.069	538.19
430.292	554.19
430.514	452.19
430.736	436.19
430.958	449.19
431.18	436.19
431.402	440.19
431.624	421.19
431.846	394.19
432.068	400.19
432.29	434.19
432.512	428.19
432.734	444.19
432.956	432.19
433.178	428.19
433.4	421.19
433.622	412.19
433.844	410.19
434.066	410.19
434.287	423.19
434.509	419.19
434.731	448.19
434.953	424.19
435.175	450.19
435.397	472.19
435.618	480.19
435.84	506.19
436.062	619.19
436.284	664.19
436.505	561.19
436.727	476.19
436.949	452.19
437.17	446.19
437.392	440.19
437.614	464.19
437.835	489.19
438.057	549.19
438.278	651.19
438.5	651.19
438.721	726.19
438.943	702.19
439.165	556.19
439.386	522.19
439.608	496.19
439.829	504.19
440.05	505.19
440.272	569.19
440.493	513.19
440.715	480.19
440.936	462.19
441.158	448.19
441.379	447.19
441.6	458.19
441.822	451.19
442.043	508.19
442.264	601.19
442.486	630.19
442.707	519.19
442.928	493.19
443.149	487.19
443.371	514.19
443.592	560.19
443.813	645.19
444.034	701.19
444.255	595.19
444.476	486.19
444.698	500.19
444.919	476.19
445.14	547.19
445.361	527.19
445.582	511.19
445.803	556.19
446.024	666.19
446.245	670.19
446.466	610.19
446.687	520.19
446.908	484.19
447.129	460.19
447.35	449.19
447.571	468.19
447.792	440.19
448.013	450.19
448.234	482.19
448.455	514.19
448.675	624.19
448.896	712.19
449.117	618.19
449.338	575.19
449.559	678.19
449.779	768.19
450	590.19
450.221	516.19
450.442	465.19
450.662	448.19
450.883	455.19
451.104	461.19
451.324	411.19
451.545	427.19
451.766	418.19
451.986	384.19
452.207	384.19
452.428	387.19
452.648	393.19
452.869	428.19
453.089	404.19
453.31	412.19
453.53	409.19
453.751	401.19
453.971	409.19
454.192	404.19
454.412	411.19
454.633	398.19
454.853	371.19
455.073	397.19
455.294	436.19
455.514	500.19
455.734	459.19
455.955	409.19
456.175	393.19
456.395	376.19
456.616	359.19
456.836	371.19
457.056	366.19
457.276	388.19
457.497	370.19
457.717	374.19
457.937	372.19
458.157	407.19
458.377	385.19
458.598	402.19
458.818	457.19
459.038	518.19
459.258	544.19
459.478	452.19
459.698	427.19
459.918	416.19
460.138	430.19
460.358	429.19
460.578	414.19
460.798	406.19
461.018	411.19
461.238	419.19
461.458	420.19
461.678	416.19
461.898	418.19
462.118	421.19
462.338	410.19
462.558	444.19
462.777	456.19
462.997	462.19
463.217	444.19
463.437	436.19
463.657	452.19
463.876	452.19
464.096	470.19
464.316	444.19
464.536	461.19
464.755	432.19
464.975	440.19
465.195	470.19
465.414	548.19
465.634	462.19
465.854	457.19
466.073	413.19
466.293	402.19
466.512	424.19
466.732	396.19
466.951	383.19
467.171	391.19
467.391	413.19
467.61	382.19
467.829	411.19
468.049	408.19
468.268	414.19
468.488	385.19
468.707	370.19
468.927	380.19
469.146	387.19
469.365	412.19
469.585	410.19
469.804	409.19
470.023	399.19
470.243	398.19
470.462	426.19
470.681	425.19
470.901	420.19
471.12	404.19
471.339	396.19
471.558	403.19
471.777	429.19
471.997	420.19
472.216	383.19
472.435	397.19
472.654	396.19
472.873	377.19
473.092	390.19
473.311	405.19
473.53	414.19
473.749	433.19
473.968	457.19
474.187	557.19
474.406	554.19
474.625	442.19
474.844	417.19
475.063	410.19
475.282	423.19
475.501	414.19
475.72	426.19
475.939	420.19
476.158	413.19
476.377	402.19
476.596	413.19
476.814	424.19
477.033	416.19
477.252	406.19
477.471	455.19
477.69	441.19
477.908	457.19
478.127	429.19
478.346	423.19
478.564	462.19
478.783	450.19
479.002	458.19
479.22	432.19
479.439	468.19
479.658	491.19
479.876	480.19
480.095	491.19
480.313	505.19
480.532	489.19
480.751	504.19
480.969	504.19
481.188	484.19
481.406	484.19
481.624	479.19
481.843	482.19
482.061	484.19
482.28	459.19
482.498	459.19
482.717	480.19
482.935	457.19
483.153	469.19
483.372	478.19
483.59	474.19
483.808	482.19
484.027	469.19
484.245	470.19
484.463	485.19
484.681	480.19
484.9	489.19
485.118	477.19
485.336	482.19
485.554	482.19
485.772	471.19
485.99	480.19
486.209	509.19
486.427	482.19
486.645	489.19
486.863	512.19
487.081	514.19
487.299	532.19
487.517	537.19
487.735	490.19
487.953	502.19
488.171	522.19
488.389	512.19
488.607	497.19
488.825	506.19
489.043	502.19
489.261	506.19
489.479	522.19
489.696	513.19
489.914	526.19
490.132	512.19
490.35	515.19
490.568	540.19
490.786	544.19
491.003	549.19
491.221	562.19
491.439	560.19
491.657	574.19
491.874	574.19
492.092	576.19
492.31	596.19
492.527	580.19
492.745	594.19
492.963	600.19
493.18	589.19
493.398	613.19
493.615	572.19
493.833	615.19
494.05	578.19
494.268	599.19
494.485	602.19
494.703	586.19
494.92	596.19
495.138	572.19
495.355	615.19
495.573	594.19
495.79	579.19
496.008	614.19
496.225	610.19
496.442	616.19
496.66	596.19
496.877	599.19
497.094	595.19
497.312	612.19
497.529	648.19
497.746	635.19
497.963	661.19
498.181	655.19
498.398	668.19
498.615	660.19
498.832	690.19
499.049	694.19
499.267	703.19
499.484	722.19
499.701	744.19
499.918	747.19
500.135	767.19
500.352	791.19
500.569	812.19
500.786	819.19
501.003	796.19
501.22	788.19
501.437	749.19
501.654	775.19
501.871	753.19
502.088	729.19
