Data from 1989.PennyLincolnUp.Lamp.En5.5.200Scan.071819.P2_HRD10591_17-26-15-974.txt Node
Date: Thu Jul 18 17:26:15 EDT 2019
User: cochatt
Spectrometer: HR+D1059
Trigger mode: 1
Integration Time (sec): 1.000000E-1
Scans to average: 1
Electric dark correction enabled: true
Nonlinearity correction enabled: false
Boxcar width: 0
XAxis mode: Wavelengths
Number of Pixels in Spectrum: 2048
>>>>>Begin Spectral Data<<<<<
223.165	-17.75
223.4	-17.75
223.635	-17.75
223.869	-16.75
224.104	-15.75
224.338	-0.75
224.573	-11.75
224.808	-16.75
225.042	-9.75
225.277	-13.75
225.511	-4.75
225.746	12.25
225.98	7.25
226.215	2.25
226.449	5.25
226.683	20.25
226.918	33.25
227.152	27.25
227.387	51.25
227.621	29.25
227.856	30.25
228.09	39.25
228.324	47.25
228.559	55.25
228.793	62.25
229.027	100.25
229.262	123.25
229.496	124.25
229.73	155.25
229.964	169.25
230.199	148.25
230.433	118.25
230.667	128.25
230.901	114.25
231.136	113.25
231.37	131.25
231.604	116.25
231.838	112.25
232.072	104.25
232.306	127.25
232.541	122.25
232.775	126.25
233.009	122.25
233.243	132.25
233.477	126.25
233.711	139.25
233.945	122.25
234.179	120.25
234.413	128.25
234.647	132.25
234.881	114.25
235.115	130.25
235.349	130.25
235.583	127.25
235.817	113.25
236.051	132.25
236.285	144.25
236.519	127.25
236.753	143.25
236.987	154.25
237.221	207.25
237.455	266.25
237.689	214.25
237.922	154.25
238.156	146.25
238.39	131.25
238.624	140.25
238.858	156.25
239.091	136.25
239.325	127.25
239.559	142.25
239.793	131.25
240.027	138.25
240.26	162.25
240.494	170.25
240.728	178.25
240.961	155.25
241.195	143.25
241.429	148.25
241.662	147.25
241.896	162.25
242.13	152.25
242.363	154.25
242.597	150.25
242.83	159.25
243.064	167.25
243.298	145.25
243.531	149.25
243.765	148.25
243.998	152.25
244.232	151.25
244.465	162.25
244.699	154.25
244.932	150.25
245.166	178.25
245.399	145.25
245.633	160.25
245.866	148.25
246.099	164.25
246.333	159.25
246.566	156.25
246.8	163.25
247.033	169.25
247.266	166.25
247.5	183.25
247.733	180.25
247.966	190.25
248.2	185.25
248.433	192.25
248.666	196.25
248.899	202.25
249.133	222.25
249.366	251.25
249.599	222.25
249.832	213.25
250.066	205.25
250.299	223.25
250.532	231.25
250.765	247.25
250.998	257.25
251.231	269.25
251.465	261.25
251.698	247.25
251.931	230.25
252.164	234.25
252.397	223.25
252.63	225.25
252.863	235.25
253.096	237.25
253.329	247.25
253.562	259.25
253.795	256.25
254.028	250.25
254.261	246.25
254.494	255.25
254.727	302.25
254.96	318.25
255.193	315.25
255.426	279.25
255.659	294.25
255.892	291.25
256.124	291.25
256.357	309.25
256.59	308.25
256.823	283.25
257.056	253.25
257.289	264.25
257.521	258.25
257.754	247.25
257.987	252.25
258.22	236.25
258.452	243.25
258.685	254.25
258.918	226.25
259.151	250.25
259.383	242.25
259.616	244.25
259.849	242.25
260.081	286.25
260.314	291.25
260.547	290.25
260.779	292.25
261.012	263.25
261.244	255.25
261.477	283.25
261.71	262.25
261.942	276.25
262.175	272.25
262.407	254.25
262.64	243.25
262.872	248.25
263.105	232.25
263.337	238.25
263.57	242.25
263.802	232.25
264.035	221.25
264.267	229.25
264.499	239.25
264.732	255.25
264.964	227.25
265.197	248.25
265.429	246.25
265.661	270.25
265.894	246.25
266.126	246.25
266.358	238.25
266.591	245.25
266.823	243.25
267.055	261.25
267.287	270.25
267.52	247.25
267.752	252.25
267.984	262.25
268.216	253.25
268.448	266.25
268.681	271.25
268.913	279.25
269.145	310.25
269.377	323.25
269.609	316.25
269.841	312.25
270.073	346.25
270.306	334.25
270.538	354.25
270.77	365.25
271.002	359.25
271.234	335.25
271.466	362.25
271.698	352.25
271.93	366.25
272.162	367.25
272.394	382.25
272.626	361.25
272.858	349.25
273.09	331.25
273.322	312.25
273.553	300.25
273.785	298.25
274.017	306.25
274.249	315.25
274.481	313.25
274.713	309.25
274.945	308.25
275.176	301.25
275.408	329.25
275.64	314.25
275.872	308.25
276.104	311.25
276.335	306.25
276.567	305.25
276.799	324.25
277.031	356.25
277.262	373.25
277.494	370.25
277.726	351.25
277.957	356.25
278.189	334.25
278.421	312.25
278.652	310.25
278.884	293.25
279.115	290.25
279.347	289.25
279.579	304.25
279.81	324.25
280.042	293.25
280.273	316.25
280.505	318.25
280.736	297.25
280.968	292.25
281.199	298.25
281.431	311.25
281.662	294.25
281.894	298.25
282.125	313.25
282.356	333.25
282.588	356.25
282.819	360.25
283.051	326.25
283.282	312.25
283.513	308.25
283.745	316.25
283.976	324.25
284.207	315.25
284.439	311.25
284.67	333.25
284.901	315.25
285.132	307.25
285.364	315.25
285.595	320.25
285.826	317.25
286.057	324.25
286.288	312.25
286.52	330.25
286.751	325.25
286.982	318.25
287.213	333.25
287.444	317.25
287.675	327.25
287.906	325.25
288.138	348.25
288.369	348.25
288.6	329.25
288.831	342.25
289.062	334.25
289.293	332.25
289.524	325.25
289.755	334.25
289.986	313.25
290.217	349.25
290.448	324.25
290.679	321.25
290.91	339.25
291.141	340.25
291.371	318.25
291.602	311.25
291.833	327.25
292.064	326.25
292.295	333.25
292.526	319.25
292.757	340.25
292.987	339.25
293.218	325.25
293.449	309.25
293.68	316.25
293.91	326.25
294.141	329.25
294.372	310.25
294.603	332.25
294.833	328.25
295.064	328.25
295.295	352.25
295.525	310.25
295.756	342.25
295.987	342.25
296.217	351.25
296.448	377.25
296.679	348.25
296.909	338.25
297.14	328.25
297.37	329.25
297.601	323.25
297.831	334.25
298.062	333.25
298.292	333.25
298.523	347.25
298.753	357.25
298.984	325.25
299.214	354.25
299.445	344.25
299.675	358.25
299.905	329.25
300.136	344.25
300.366	372.25
300.597	351.25
300.827	351.25
301.057	359.25
301.288	376.25
301.518	356.25
301.748	356.25
301.979	384.25
302.209	370.25
302.439	362.25
302.669	368.25
302.9	372.25
303.13	358.25
303.36	364.25
303.59	369.25
303.82	367.25
304.051	388.25
304.281	375.25
304.511	380.25
304.741	358.25
304.971	346.25
305.201	359.25
305.431	379.25
305.661	357.25
305.891	370.25
306.121	356.25
306.352	372.25
306.582	382.25
306.812	379.25
307.042	382.25
307.272	374.25
307.502	378.25
307.731	361.25
307.961	379.25
308.191	353.25
308.421	390.25
308.651	392.25
308.881	388.25
309.111	395.25
309.341	385.25
309.571	413.25
309.8	393.25
310.03	420.25
310.26	434.25
310.49	418.25
310.72	435.25
310.949	439.25
311.179	454.25
311.409	431.25
311.639	446.25
311.868	413.25
312.098	426.25
312.328	424.25
312.557	471.25
312.787	474.25
313.017	438.25
313.246	438.25
313.476	421.25
313.706	421.25
313.935	437.25
314.165	455.25
314.394	455.25
314.624	462.25
314.853	442.25
315.083	423.25
315.312	434.25
315.542	430.25
315.771	430.25
316.001	423.25
316.23	410.25
316.46	400.25
316.689	420.25
316.919	435.25
317.148	451.25
317.377	454.25
317.607	428.25
317.836	431.25
318.065	413.25
318.295	435.25
318.524	425.25
318.753	426.25
318.983	414.25
319.212	424.25
319.441	416.25
319.67	444.25
319.9	406.25
320.129	441.25
320.358	427.25
320.587	423.25
320.816	462.25
321.046	463.25
321.275	440.25
321.504	443.25
321.733	445.25
321.962	472.25
322.191	482.25
322.42	485.25
322.649	516.25
322.878	530.25
323.108	521.25
323.337	577.25
323.566	599.25
323.795	636.25
324.024	680.25
324.253	834.25
324.482	1236.25
324.71	1881.25
324.939	2706.25
325.168	2306.25
325.397	1198.25
325.626	804.25
325.855	678.25
326.084	613.25
326.313	611.25
326.542	598.25
326.77	652.25
326.999	778.25
327.228	1106.25
327.457	1674.25
327.686	2027.25
327.914	1335.25
328.143	900.25
328.372	787.25
328.6	698.25
328.829	692.25
329.058	674.25
329.287	677.25
329.515	664.25
329.744	585.25
329.972	622.25
330.201	651.25
330.43	728.25
330.658	756.25
330.887	756.25
331.115	718.25
331.344	617.25
331.572	583.25
331.801	578.25
332.03	555.25
332.258	534.25
332.486	523.25
332.715	512.25
332.943	526.25
333.172	528.25
333.4	511.25
333.629	548.25
333.857	557.25
334.085	573.25
334.314	619.25
334.542	690.25
334.771	745.25
334.999	640.25
335.227	549.25
335.455	536.25
335.684	512.25
335.912	483.25
336.14	510.25
336.369	492.25
336.597	511.25
336.825	536.25
337.053	520.25
337.281	505.25
337.51	483.25
337.738	477.25
337.966	503.25
338.194	482.25
338.422	487.25
338.65	503.25
338.878	476.25
339.106	464.25
339.334	471.25
339.562	475.25
339.79	478.25
340.018	490.25
340.246	486.25
340.474	502.25
340.702	494.25
340.93	503.25
341.158	500.25
341.386	472.25
341.614	467.25
341.842	494.25
342.07	444.25
342.298	478.25
342.526	458.25
342.754	445.25
342.981	447.25
343.209	470.25
343.437	464.25
343.665	459.25
343.893	461.25
344.12	469.25
344.348	479.25
344.576	468.25
344.804	486.25
345.031	491.25
345.259	498.25
345.487	482.25
345.714	470.25
345.942	471.25
346.17	463.25
346.397	461.25
346.625	458.25
346.853	473.25
347.08	453.25
347.308	479.25
347.535	473.25
347.763	459.25
347.99	467.25
348.218	474.25
348.445	465.25
348.673	457.25
348.9	444.25
349.128	454.25
349.355	446.25
349.583	449.25
349.81	443.25
350.037	440.25
350.265	438.25
350.492	439.25
350.72	442.25
350.947	437.25
351.174	439.25
351.402	463.25
351.629	468.25
351.856	462.25
352.083	451.25
352.311	454.25
352.538	491.25
352.765	504.25
352.992	470.25
353.22	465.25
353.447	454.25
353.674	460.25
353.901	416.25
354.128	443.25
354.355	429.25
354.583	432.25
354.81	422.25
355.037	406.25
355.264	416.25
355.491	410.25
355.718	410.25
355.945	411.25
356.172	441.25
356.399	410.25
356.626	413.25
356.853	405.25
357.08	425.25
357.307	398.25
357.534	402.25
357.761	397.25
357.988	422.25
358.215	421.25
358.441	411.25
358.668	416.25
358.895	446.25
359.122	426.25
359.349	425.25
359.576	452.25
359.802	509.25
360.029	492.25
360.256	516.25
360.483	488.25
360.709	460.25
360.936	436.25
361.163	420.25
361.39	442.25
361.616	458.25
361.843	447.25
362.07	447.25
362.296	456.25
362.523	457.25
362.749	464.25
362.976	445.25
363.203	428.25
363.429	441.25
363.656	441.25
363.882	415.25
364.109	396.25
364.335	414.25
364.562	436.25
364.788	422.25
365.015	438.25
365.241	415.25
365.468	434.25
365.694	428.25
365.92	443.25
366.147	415.25
366.373	419.25
366.599	436.25
366.826	432.25
367.052	388.25
367.278	415.25
367.505	421.25
367.731	423.25
367.957	408.25
368.184	412.25
368.41	429.25
368.636	429.25
368.862	438.25
369.089	436.25
369.315	409.25
369.541	411.25
369.767	417.25
369.993	432.25
370.219	419.25
370.445	422.25
370.672	407.25
370.898	408.25
371.124	402.25
371.35	403.25
371.576	407.25
371.802	396.25
372.028	410.25
372.254	428.25
372.48	392.25
372.706	398.25
372.932	416.25
373.158	413.25
373.384	400.25
373.61	422.25
373.835	416.25
374.061	427.25
374.287	412.25
374.513	432.25
374.739	404.25
374.965	419.25
375.191	406.25
375.416	400.25
375.642	405.25
375.868	419.25
376.094	416.25
376.319	402.25
376.545	402.25
376.771	410.25
376.997	389.25
377.222	400.25
377.448	409.25
377.674	406.25
377.899	399.25
378.125	377.25
378.35	399.25
378.576	396.25
378.802	380.25
379.027	411.25
379.253	387.25
379.478	405.25
379.704	383.25
379.929	395.25
380.155	370.25
380.38	411.25
380.606	408.25
380.831	382.25
381.057	396.25
381.282	414.25
381.507	398.25
381.733	408.25
381.958	410.25
382.184	400.25
382.409	435.25
382.634	408.25
382.86	428.25
383.085	423.25
383.31	427.25
383.535	404.25
383.761	420.25
383.986	418.25
384.211	412.25
384.436	408.25
384.662	428.25
384.887	418.25
385.112	416.25
385.337	421.25
385.562	422.25
385.787	413.25
386.013	439.25
386.238	441.25
386.463	432.25
386.688	443.25
386.913	424.25
387.138	439.25
387.363	440.25
387.588	414.25
387.813	442.25
388.038	462.25
388.263	421.25
388.488	427.25
388.713	409.25
388.938	413.25
389.163	418.25
389.387	438.25
389.612	417.25
389.837	423.25
390.062	443.25
390.287	437.25
390.512	425.25
390.736	410.25
390.961	422.25
391.186	438.25
391.411	434.25
391.636	422.25
391.86	421.25
392.085	436.25
392.31	423.25
392.534	414.25
392.759	412.25
392.984	422.25
393.208	448.25
393.433	433.25
393.658	402.25
393.882	418.25
394.107	410.25
394.331	413.25
394.556	420.25
394.78	430.25
395.005	431.25
395.229	414.25
395.454	445.25
395.678	422.25
395.903	444.25
396.127	475.25
396.352	471.25
396.576	463.25
396.801	447.25
397.025	436.25
397.249	468.25
397.474	450.25
397.698	465.25
397.922	465.25
398.147	472.25
398.371	479.25
398.595	477.25
398.82	463.25
399.044	459.25
399.268	476.25
399.492	512.25
399.717	531.25
399.941	566.25
400.165	574.25
400.389	600.25
400.613	532.25
400.837	507.25
401.062	508.25
401.286	485.25
401.51	485.25
401.734	472.25
401.958	481.25
402.182	470.25
402.406	504.25
402.63	504.25
402.854	501.25
403.078	483.25
403.302	474.25
403.526	501.25
403.75	504.25
403.974	514.25
404.198	471.25
404.422	492.25
404.645	514.25
404.869	539.25
405.093	578.25
405.317	609.25
405.541	656.25
405.765	592.25
405.988	559.25
406.212	549.25
406.436	562.25
406.66	575.25
406.883	568.25
407.107	562.25
407.331	617.25
407.555	654.25
407.778	674.25
408.002	615.25
408.226	572.25
408.449	556.25
408.673	546.25
408.896	587.25
409.12	633.25
409.344	602.25
409.567	538.25
409.791	527.25
410.014	500.25
410.238	496.25
410.461	504.25
410.685	518.25
410.908	524.25
411.132	557.25
411.355	580.25
411.578	578.25
411.802	532.25
412.025	508.25
412.249	497.25
412.472	566.25
412.695	602.25
412.919	623.25
413.142	529.25
413.365	543.25
413.589	496.25
413.812	479.25
414.035	464.25
414.258	479.25
414.482	497.25
414.705	472.25
414.928	487.25
415.151	459.25
415.374	473.25
415.597	462.25
415.821	467.25
416.044	473.25
416.267	487.25
416.49	468.25
416.713	446.25
416.936	472.25
417.159	460.25
417.382	491.25
417.605	473.25
417.828	487.25
418.051	503.25
418.274	484.25
418.497	470.25
418.72	476.25
418.943	467.25
419.166	508.25
419.389	492.25
419.611	496.25
419.834	503.25
420.057	509.25
420.28	527.25
420.503	546.25
420.726	532.25
420.948	535.25
421.171	578.25
421.394	599.25
421.617	547.25
421.839	504.25
422.062	491.25
422.285	526.25
422.507	561.25
422.73	644.25
422.953	642.25
423.175	565.25
423.398	522.25
423.621	512.25
423.843	542.25
424.066	550.25
424.288	534.25
424.511	538.25
424.733	616.25
424.956	695.25
425.178	667.25
425.401	664.25
425.623	706.25
425.846	599.25
426.068	540.25
426.291	538.25
426.513	553.25
426.735	567.25
426.958	604.25
427.18	694.25
427.402	810.25
427.625	902.25
427.847	822.25
428.069	711.25
428.292	658.25
428.514	570.25
428.736	565.25
428.958	515.25
429.181	501.25
429.403	501.25
429.625	522.25
429.847	549.25
430.069	614.25
430.292	615.25
430.514	533.25
430.736	501.25
430.958	513.25
431.18	483.25
431.402	490.25
431.624	451.25
431.846	467.25
432.068	460.25
432.29	468.25
432.512	471.25
432.734	468.25
432.956	474.25
433.178	476.25
433.4	500.25
433.622	480.25
433.844	477.25
434.066	480.25
434.287	463.25
434.509	479.25
434.731	468.25
434.953	479.25
435.175	499.25
435.397	542.25
435.618	533.25
435.84	587.25
436.062	698.25
436.284	753.25
436.505	628.25
436.727	576.25
436.949	514.25
437.17	502.25
437.392	491.25
437.614	532.25
437.835	558.25
438.057	680.25
438.278	767.25
438.5	773.25
438.721	837.25
438.943	790.25
439.165	640.25
439.386	591.25
439.608	559.25
439.829	557.25
440.05	575.25
440.272	631.25
440.493	587.25
440.715	546.25
440.936	529.25
441.158	510.25
441.379	501.25
441.6	518.25
441.822	540.25
442.043	559.25
442.264	657.25
442.486	711.25
442.707	612.25
442.928	567.25
443.149	574.25
443.371	610.25
443.592	627.25
443.813	710.25
444.034	812.25
444.255	645.25
444.476	560.25
444.698	546.25
444.919	545.25
445.14	671.25
445.361	616.25
445.582	614.25
445.803	662.25
446.024	798.25
446.245	781.25
446.466	699.25
446.687	588.25
446.908	518.25
447.129	518.25
447.35	520.25
447.571	510.25
447.792	498.25
448.013	497.25
448.234	529.25
448.455	592.25
448.675	685.25
448.896	818.25
449.117	694.25
449.338	639.25
449.559	772.25
449.779	854.25
450	690.25
450.221	583.25
450.442	526.25
450.662	514.25
450.883	504.25
451.104	508.25
451.324	498.25
451.545	481.25
451.766	472.25
451.986	454.25
452.207	440.25
452.428	459.25
452.648	442.25
452.869	470.25
453.089	454.25
453.31	453.25
453.53	467.25
453.751	450.25
453.971	430.25
454.192	480.25
454.412	463.25
454.633	458.25
454.853	453.25
455.073	453.25
455.294	468.25
455.514	558.25
455.734	529.25
455.955	454.25
456.175	428.25
456.395	423.25
456.616	418.25
456.836	412.25
457.056	402.25
457.276	392.25
457.497	395.25
457.717	438.25
457.937	419.25
458.157	431.25
458.377	427.25
458.598	466.25
458.818	504.25
459.038	598.25
459.258	644.25
459.478	528.25
459.698	484.25
459.918	464.25
460.138	471.25
460.358	459.25
460.578	455.25
460.798	462.25
461.018	481.25
461.238	466.25
461.458	472.25
461.678	453.25
461.898	453.25
462.118	470.25
462.338	466.25
462.558	461.25
462.777	480.25
462.997	494.25
463.217	485.25
463.437	508.25
463.657	475.25
463.876	454.25
464.096	489.25
464.316	479.25
464.536	484.25
464.755	487.25
464.975	531.25
465.195	572.25
465.414	623.25
465.634	558.25
465.854	519.25
466.073	471.25
466.293	464.25
466.512	430.25
466.732	460.25
466.951	439.25
467.171	474.25
467.391	463.25
467.61	462.25
467.829	461.25
468.049	477.25
468.268	493.25
468.488	461.25
468.707	460.25
468.927	445.25
469.146	429.25
469.365	428.25
469.585	436.25
469.804	458.25
470.023	467.25
470.243	456.25
470.462	469.25
470.681	512.25
470.901	483.25
471.12	460.25
471.339	459.25
471.558	469.25
471.777	452.25
471.997	472.25
472.216	492.25
472.435	583.25
472.654	552.25
472.873	462.25
473.092	458.25
473.311	469.25
473.53	472.25
473.749	447.25
473.968	532.25
474.187	624.25
474.406	668.25
474.625	540.25
474.844	476.25
475.063	470.25
475.282	463.25
475.501	476.25
475.72	470.25
475.939	471.25
476.158	481.25
476.377	468.25
476.596	489.25
476.814	482.25
477.033	490.25
477.252	495.25
477.471	498.25
477.69	490.25
477.908	512.25
478.127	505.25
478.346	509.25
478.564	504.25
478.783	499.25
479.002	496.25
479.22	514.25
479.439	538.25
479.658	555.25
479.876	553.25
480.095	535.25
480.313	584.25
480.532	568.25
480.751	566.25
480.969	605.25
481.188	723.25
481.406	795.25
481.624	656.25
481.843	587.25
482.061	593.25
482.28	578.25
482.498	551.25
482.717	548.25
482.935	549.25
483.153	549.25
483.372	551.25
483.59	552.25
483.808	539.25
484.027	534.25
484.245	549.25
484.463	528.25
484.681	558.25
484.9	558.25
485.118	543.25
485.336	559.25
485.554	548.25
485.772	565.25
485.99	574.25
486.209	576.25
486.427	574.25
486.645	582.25
486.863	616.25
487.081	589.25
487.299	596.25
487.517	615.25
487.735	601.25
487.953	598.25
488.171	576.25
488.389	601.25
488.607	587.25
488.825	601.25
489.043	593.25
489.261	612.25
489.479	613.25
489.696	595.25
489.914	623.25
490.132	619.25
490.35	615.25
490.568	621.25
490.786	642.25
491.003	646.25
491.221	681.25
491.439	672.25
491.657	684.25
491.874	693.25
492.092	700.25
492.31	696.25
492.527	678.25
492.745	700.25
492.963	715.25
493.18	709.25
493.398	698.25
493.615	710.25
493.833	701.25
494.05	721.25
494.268	697.25
494.485	731.25
494.703	706.25
494.92	705.25
495.138	704.25
495.355	698.25
495.573	711.25
495.79	706.25
496.008	709.25
496.225	686.25
496.442	720.25
496.66	694.25
496.877	687.25
497.094	696.25
497.312	690.25
497.529	705.25
497.746	725.25
497.963	726.25
498.181	754.25
498.398	724.25
498.615	735.25
498.832	758.25
499.049	743.25
499.267	751.25
499.484	788.25
499.701	798.25
499.918	822.25
500.135	837.25
500.352	895.25
500.569	885.25
500.786	884.25
501.003	901.25
501.22	896.25
501.437	840.25
501.654	846.25
501.871	866.25
