Data from 1989.PennyLincolnUp.Lamp.En5.5.200Scan.071819.P2_HRD10591_17-25-44-973.txt Node
Date: Thu Jul 18 17:25:44 EDT 2019
User: cochatt
Spectrometer: HR+D1059
Trigger mode: 1
Integration Time (sec): 1.000000E-1
Scans to average: 1
Electric dark correction enabled: true
Nonlinearity correction enabled: false
Boxcar width: 0
XAxis mode: Wavelengths
Number of Pixels in Spectrum: 2048
>>>>>Begin Spectral Data<<<<<
223.165	-4.44
223.4	-4.44
223.635	-4.44
223.869	-11.44
224.104	-20.44
224.338	-30.44
224.573	-18.44
224.808	-19.44
225.042	-10.44
225.277	-11.44
225.511	-5.44
225.746	11.56
225.98	14.56
226.215	18.56
226.449	6.56
226.683	26.56
226.918	29.56
227.152	24.56
227.387	36.56
227.621	38.56
227.856	33.56
228.09	51.56
228.324	40.56
228.559	50.56
228.793	63.56
229.027	107.56
229.262	121.56
229.496	123.56
229.73	129.56
229.964	155.56
230.199	131.56
230.433	121.56
230.667	121.56
230.901	117.56
231.136	117.56
231.37	101.56
231.604	111.56
231.838	122.56
232.072	134.56
232.306	113.56
232.541	128.56
232.775	124.56
233.009	127.56
233.243	120.56
233.477	116.56
233.711	118.56
233.945	107.56
234.179	94.56
234.413	119.56
234.647	128.56
234.881	123.56
235.115	125.56
235.349	136.56
235.583	130.56
235.817	124.56
236.051	138.56
236.285	132.56
236.519	119.56
236.753	143.56
236.987	168.56
237.221	172.56
237.455	251.56
237.689	188.56
237.922	156.56
238.156	138.56
238.39	128.56
238.624	132.56
238.858	126.56
239.091	132.56
239.325	115.56
239.559	126.56
239.793	147.56
240.027	150.56
240.26	154.56
240.494	158.56
240.728	155.56
240.961	146.56
241.195	143.56
241.429	164.56
241.662	149.56
241.896	152.56
242.13	142.56
242.363	138.56
242.597	132.56
242.83	132.56
243.064	137.56
243.298	148.56
243.531	146.56
243.765	159.56
243.998	154.56
244.232	157.56
244.465	154.56
244.699	162.56
244.932	153.56
245.166	155.56
245.399	164.56
245.633	173.56
245.866	158.56
246.099	150.56
246.333	158.56
246.566	164.56
246.8	171.56
247.033	142.56
247.266	157.56
247.5	180.56
247.733	171.56
247.966	173.56
248.2	184.56
248.433	188.56
248.666	193.56
248.899	199.56
249.133	201.56
249.366	228.56
249.599	229.56
249.832	200.56
250.066	196.56
250.299	189.56
250.532	208.56
250.765	241.56
250.998	256.56
251.231	254.56
251.465	244.56
251.698	225.56
251.931	233.56
252.164	225.56
252.397	210.56
252.63	219.56
252.863	234.56
253.096	230.56
253.329	249.56
253.562	252.56
253.795	256.56
254.028	242.56
254.261	243.56
254.494	263.56
254.727	298.56
254.96	327.56
255.193	311.56
255.426	280.56
255.659	245.56
255.892	258.56
256.124	265.56
256.357	280.56
256.59	264.56
256.823	273.56
257.056	248.56
257.289	243.56
257.521	226.56
257.754	233.56
257.987	234.56
258.22	235.56
258.452	238.56
258.685	213.56
258.918	231.56
259.151	212.56
259.383	234.56
259.616	230.56
259.849	261.56
260.081	284.56
260.314	285.56
260.547	278.56
260.779	269.56
261.012	255.56
261.244	261.56
261.477	253.56
261.71	243.56
261.942	260.56
262.175	257.56
262.407	248.56
262.64	234.56
262.872	248.56
263.105	242.56
263.337	221.56
263.57	230.56
263.802	236.56
264.035	233.56
264.267	224.56
264.499	229.56
264.732	241.56
264.964	233.56
265.197	217.56
265.429	250.56
265.661	227.56
265.894	236.56
266.126	236.56
266.358	238.56
266.591	230.56
266.823	244.56
267.055	243.56
267.287	229.56
267.52	251.56
267.752	237.56
267.984	246.56
268.216	232.56
268.448	252.56
268.681	292.56
268.913	267.56
269.145	297.56
269.377	306.56
269.609	303.56
269.841	292.56
270.073	306.56
270.306	324.56
270.538	350.56
270.77	342.56
271.002	343.56
271.234	331.56
271.466	340.56
271.698	339.56
271.93	368.56
272.162	353.56
272.394	342.56
272.626	356.56
272.858	332.56
273.09	316.56
273.322	307.56
273.553	309.56
273.785	310.56
274.017	295.56
274.249	295.56
274.481	281.56
274.713	302.56
274.945	317.56
275.176	297.56
275.408	296.56
275.64	296.56
275.872	278.56
276.104	289.56
276.335	292.56
276.567	289.56
276.799	313.56
277.031	330.56
277.262	372.56
277.494	345.56
277.726	329.56
277.957	327.56
278.189	310.56
278.421	292.56
278.652	300.56
278.884	280.56
279.115	294.56
279.347	277.56
279.579	286.56
279.81	280.56
280.042	283.56
280.273	292.56
280.505	305.56
280.736	285.56
280.968	287.56
281.199	288.56
281.431	288.56
281.662	294.56
281.894	291.56
282.125	294.56
282.356	306.56
282.588	330.56
282.819	329.56
283.051	316.56
283.282	274.56
283.513	291.56
283.745	306.56
283.976	308.56
284.207	305.56
284.439	296.56
284.67	277.56
284.901	299.56
285.132	309.56
285.364	291.56
285.595	300.56
285.826	281.56
286.057	314.56
286.288	299.56
286.52	308.56
286.751	315.56
286.982	300.56
287.213	298.56
287.444	324.56
287.675	320.56
287.906	337.56
288.138	319.56
288.369	330.56
288.6	316.56
288.831	320.56
289.062	327.56
289.293	315.56
289.524	299.56
289.755	337.56
289.986	315.56
290.217	323.56
290.448	312.56
290.679	323.56
290.91	301.56
291.141	305.56
291.371	306.56
291.602	313.56
291.833	323.56
292.064	308.56
292.295	309.56
292.526	310.56
292.757	299.56
292.987	306.56
293.218	310.56
293.449	305.56
293.68	317.56
293.91	310.56
294.141	314.56
294.372	305.56
294.603	292.56
294.833	313.56
295.064	299.56
295.295	293.56
295.525	323.56
295.756	306.56
295.987	322.56
296.217	350.56
296.448	357.56
296.679	337.56
296.909	310.56
297.14	325.56
297.37	332.56
297.601	321.56
297.831	327.56
298.062	322.56
298.292	340.56
298.523	346.56
298.753	330.56
298.984	337.56
299.214	352.56
299.445	341.56
299.675	326.56
299.905	343.56
300.136	337.56
300.366	312.56
300.597	315.56
300.827	348.56
301.057	334.56
301.288	347.56
301.518	344.56
301.748	343.56
301.979	350.56
302.209	330.56
302.439	347.56
302.669	368.56
302.9	346.56
303.13	349.56
303.36	323.56
303.59	352.56
303.82	365.56
304.051	355.56
304.281	338.56
304.511	350.56
304.741	357.56
304.971	356.56
305.201	359.56
305.431	336.56
305.661	353.56
305.891	314.56
306.121	356.56
306.352	364.56
306.582	372.56
306.812	355.56
307.042	333.56
307.272	350.56
307.502	349.56
307.731	372.56
307.961	358.56
308.191	364.56
308.421	357.56
308.651	366.56
308.881	357.56
309.111	365.56
309.341	361.56
309.571	390.56
309.8	404.56
310.03	406.56
310.26	405.56
310.49	388.56
310.72	420.56
310.949	421.56
311.179	420.56
311.409	418.56
311.639	396.56
311.868	402.56
312.098	409.56
312.328	417.56
312.557	425.56
312.787	457.56
313.017	456.56
313.246	424.56
313.476	406.56
313.706	413.56
313.935	426.56
314.165	402.56
314.394	429.56
314.624	430.56
314.853	422.56
315.083	425.56
315.312	414.56
315.542	425.56
315.771	389.56
316.001	391.56
316.23	397.56
316.46	404.56
316.689	392.56
316.919	408.56
317.148	426.56
317.377	414.56
317.607	393.56
317.836	413.56
318.065	416.56
318.295	418.56
318.524	406.56
318.753	399.56
318.983	406.56
319.212	411.56
319.441	419.56
319.67	437.56
319.9	414.56
320.129	416.56
320.358	419.56
320.587	419.56
320.816	414.56
321.046	438.56
321.275	430.56
321.504	436.56
321.733	445.56
321.962	432.56
322.191	461.56
322.42	474.56
322.649	521.56
322.878	487.56
323.108	510.56
323.337	570.56
323.566	584.56
323.795	607.56
324.024	677.56
324.253	804.56
324.482	1134.56
324.71	1748.56
324.939	2547.56
325.168	2242.56
325.397	1138.56
325.626	768.56
325.855	624.56
326.084	576.56
326.313	591.56
326.542	577.56
326.77	626.56
326.999	733.56
327.228	1045.56
327.457	1550.56
327.686	1938.56
327.914	1302.56
328.143	867.56
328.372	754.56
328.6	675.56
328.829	616.56
329.058	669.56
329.287	653.56
329.515	606.56
329.744	592.56
329.972	548.56
330.201	599.56
330.43	644.56
330.658	688.56
330.887	693.56
331.115	683.56
331.344	587.56
331.572	544.56
331.801	525.56
332.03	533.56
332.258	530.56
332.486	489.56
332.715	469.56
332.943	508.56
333.172	492.56
333.4	499.56
333.629	499.56
333.857	542.56
334.085	537.56
334.314	579.56
334.542	603.56
334.771	627.56
334.999	560.56
335.227	525.56
335.455	516.56
335.684	497.56
335.912	479.56
336.14	466.56
336.369	454.56
336.597	454.56
336.825	470.56
337.053	485.56
337.281	459.56
337.51	449.56
337.738	463.56
337.966	470.56
338.194	484.56
338.422	485.56
338.65	457.56
338.878	453.56
339.106	442.56
339.334	430.56
339.562	452.56
339.79	453.56
340.018	444.56
340.246	462.56
340.474	479.56
340.702	457.56
340.93	455.56
341.158	448.56
341.386	452.56
341.614	479.56
341.842	444.56
342.07	438.56
342.298	451.56
342.526	444.56
342.754	436.56
342.981	423.56
343.209	428.56
343.437	439.56
343.665	434.56
343.893	448.56
344.12	460.56
344.348	420.56
344.576	457.56
344.804	470.56
345.031	433.56
345.259	476.56
345.487	470.56
345.714	455.56
345.942	429.56
346.17	432.56
346.397	437.56
346.625	426.56
346.853	424.56
347.08	435.56
347.308	452.56
347.535	437.56
347.763	442.56
347.99	448.56
348.218	452.56
348.445	458.56
348.673	456.56
348.9	450.56
349.128	434.56
349.355	425.56
349.583	416.56
349.81	413.56
350.037	428.56
350.265	434.56
350.492	414.56
350.72	422.56
350.947	430.56
351.174	449.56
351.402	440.56
351.629	425.56
351.856	433.56
352.083	445.56
352.311	451.56
352.538	444.56
352.765	454.56
352.992	438.56
353.22	447.56
353.447	452.56
353.674	415.56
353.901	416.56
354.128	425.56
354.355	395.56
354.583	411.56
354.81	406.56
355.037	404.56
355.264	397.56
355.491	389.56
355.718	403.56
355.945	380.56
356.172	387.56
356.399	379.56
356.626	386.56
356.853	395.56
357.08	398.56
357.307	392.56
357.534	402.56
357.761	395.56
357.988	380.56
358.215	389.56
358.441	404.56
358.668	400.56
358.895	398.56
359.122	392.56
359.349	414.56
359.576	424.56
359.802	454.56
360.029	498.56
360.256	493.56
360.483	473.56
360.709	437.56
360.936	430.56
361.163	441.56
361.39	413.56
361.616	446.56
361.843	426.56
362.07	433.56
362.296	402.56
362.523	423.56
362.749	425.56
362.976	415.56
363.203	429.56
363.429	412.56
363.656	424.56
363.882	397.56
364.109	403.56
364.335	400.56
364.562	404.56
364.788	421.56
365.015	414.56
365.241	423.56
365.468	405.56
365.694	417.56
365.92	411.56
366.147	401.56
366.373	394.56
366.599	376.56
366.826	397.56
367.052	415.56
367.278	413.56
367.505	425.56
367.731	404.56
367.957	403.56
368.184	419.56
368.41	406.56
368.636	408.56
368.862	409.56
369.089	402.56
369.315	392.56
369.541	393.56
369.767	406.56
369.993	411.56
370.219	371.56
370.445	394.56
370.672	394.56
370.898	401.56
371.124	390.56
371.35	409.56
371.576	393.56
371.802	389.56
372.028	397.56
372.254	387.56
372.48	391.56
372.706	384.56
372.932	412.56
373.158	393.56
373.384	404.56
373.61	378.56
373.835	402.56
374.061	378.56
374.287	399.56
374.513	393.56
374.739	396.56
374.965	392.56
375.191	385.56
375.416	399.56
375.642	388.56
375.868	382.56
376.094	405.56
376.319	392.56
376.545	390.56
376.771	408.56
376.997	365.56
377.222	399.56
377.448	399.56
377.674	383.56
377.899	383.56
378.125	395.56
378.35	375.56
378.576	380.56
378.802	378.56
379.027	378.56
379.253	387.56
379.478	363.56
379.704	386.56
379.929	375.56
380.155	386.56
380.38	364.56
380.606	384.56
380.831	396.56
381.057	384.56
381.282	380.56
381.507	396.56
381.733	374.56
381.958	416.56
382.184	382.56
382.409	390.56
382.634	391.56
382.86	379.56
383.085	382.56
383.31	412.56
383.535	408.56
383.761	383.56
383.986	402.56
384.211	397.56
384.436	401.56
384.662	380.56
384.887	402.56
385.112	385.56
385.337	414.56
385.562	405.56
385.787	401.56
386.013	420.56
386.238	437.56
386.463	417.56
386.688	418.56
386.913	395.56
387.138	404.56
387.363	425.56
387.588	402.56
387.813	415.56
388.038	398.56
388.263	394.56
388.488	399.56
388.713	410.56
388.938	431.56
389.163	392.56
389.387	398.56
389.612	409.56
389.837	399.56
390.062	368.56
390.287	411.56
390.512	391.56
390.736	416.56
390.961	424.56
391.186	409.56
391.411	407.56
391.636	409.56
391.86	409.56
392.085	395.56
392.31	423.56
392.534	411.56
392.759	408.56
392.984	414.56
393.208	405.56
393.433	401.56
393.658	422.56
393.882	412.56
394.107	409.56
394.331	391.56
394.556	384.56
394.78	421.56
395.005	412.56
395.229	419.56
395.454	415.56
395.678	426.56
395.903	420.56
396.127	459.56
396.352	447.56
396.576	410.56
396.801	428.56
397.025	419.56
397.249	414.56
397.474	439.56
397.698	421.56
397.922	442.56
398.147	459.56
398.371	472.56
398.595	466.56
398.82	429.56
399.044	462.56
399.268	467.56
399.492	484.56
399.717	535.56
399.941	554.56
400.165	581.56
400.389	557.56
400.613	537.56
400.837	484.56
401.062	471.56
401.286	461.56
401.51	459.56
401.734	448.56
401.958	458.56
402.182	455.56
402.406	460.56
402.63	476.56
402.854	466.56
403.078	470.56
403.302	478.56
403.526	453.56
403.75	445.56
403.974	476.56
404.198	482.56
404.422	477.56
404.645	489.56
404.869	484.56
405.093	520.56
405.317	570.56
405.541	596.56
405.765	576.56
405.988	523.56
406.212	533.56
406.436	529.56
406.66	561.56
406.883	545.56
407.107	525.56
407.331	585.56
407.555	641.56
407.778	632.56
408.002	598.56
408.226	542.56
408.449	533.56
408.673	508.56
408.896	561.56
409.12	594.56
409.344	558.56
409.567	508.56
409.791	473.56
410.014	490.56
410.238	490.56
410.461	464.56
410.685	481.56
410.908	498.56
411.132	544.56
411.355	568.56
411.578	558.56
411.802	493.56
412.025	478.56
412.249	481.56
412.472	510.56
412.695	572.56
412.919	555.56
413.142	510.56
413.365	490.56
413.589	472.56
413.812	454.56
414.035	462.56
414.258	454.56
414.482	440.56
414.705	451.56
414.928	444.56
415.151	470.56
415.374	463.56
415.597	457.56
415.821	429.56
416.044	453.56
416.267	448.56
416.49	456.56
416.713	440.56
416.936	439.56
417.159	447.56
417.382	455.56
417.605	458.56
417.828	450.56
418.051	461.56
418.274	487.56
418.497	453.56
418.72	451.56
418.943	437.56
419.166	452.56
419.389	470.56
419.611	465.56
419.834	491.56
420.057	490.56
420.28	499.56
420.503	478.56
420.726	475.56
420.948	507.56
421.171	535.56
421.394	563.56
421.617	495.56
421.839	483.56
422.062	498.56
422.285	473.56
422.507	560.56
422.73	620.56
422.953	610.56
423.175	520.56
423.398	505.56
423.621	505.56
423.843	508.56
424.066	527.56
424.288	514.56
424.511	537.56
424.733	600.56
424.956	666.56
425.178	636.56
425.401	648.56
425.623	662.56
425.846	560.56
426.068	532.56
426.291	520.56
426.513	516.56
426.735	532.56
426.958	558.56
427.18	653.56
427.402	778.56
427.625	859.56
427.847	784.56
428.069	682.56
428.292	598.56
428.514	532.56
428.736	501.56
428.958	502.56
429.181	486.56
429.403	486.56
429.625	478.56
429.847	516.56
430.069	603.56
430.292	570.56
430.514	524.56
430.736	488.56
430.958	463.56
431.18	457.56
431.402	448.56
431.624	448.56
431.846	437.56
432.068	420.56
432.29	448.56
432.512	438.56
432.734	445.56
432.956	438.56
433.178	454.56
433.4	473.56
433.622	470.56
433.844	445.56
434.066	440.56
434.287	446.56
434.509	446.56
434.731	449.56
434.953	434.56
435.175	502.56
435.397	504.56
435.618	515.56
435.84	577.56
436.062	655.56
436.284	707.56
436.505	600.56
436.727	526.56
436.949	496.56
437.17	483.56
437.392	511.56
437.614	492.56
437.835	532.56
438.057	620.56
438.278	740.56
438.5	720.56
438.721	770.56
438.943	776.56
439.165	614.56
439.386	560.56
439.608	550.56
439.829	546.56
440.05	566.56
440.272	617.56
440.493	582.56
440.715	545.56
440.936	506.56
441.158	476.56
441.379	484.56
441.6	495.56
441.822	506.56
442.043	552.56
442.264	647.56
442.486	678.56
442.707	582.56
442.928	555.56
443.149	517.56
443.371	552.56
443.592	612.56
443.813	704.56
444.034	742.56
444.255	617.56
444.476	544.56
444.698	524.56
444.919	505.56
445.14	619.56
445.361	593.56
445.582	580.56
445.803	621.56
446.024	722.56
446.245	728.56
446.466	681.56
446.687	574.56
446.908	545.56
447.129	512.56
447.35	484.56
447.571	486.56
447.792	471.56
448.013	490.56
448.234	487.56
448.455	557.56
448.675	656.56
448.896	786.56
449.117	685.56
449.338	637.56
449.559	726.56
449.779	836.56
450	662.56
450.221	536.56
450.442	518.56
450.662	471.56
450.883	498.56
451.104	504.56
451.324	489.56
451.545	469.56
451.766	456.56
451.986	448.56
452.207	429.56
452.428	433.56
452.648	434.56
452.869	435.56
453.089	440.56
453.31	433.56
453.53	442.56
453.751	420.56
453.971	435.56
454.192	437.56
454.412	446.56
454.633	410.56
454.853	444.56
455.073	437.56
455.294	471.56
455.514	539.56
455.734	515.56
455.955	440.56
456.175	412.56
456.395	418.56
456.616	397.56
456.836	393.56
457.056	402.56
457.276	381.56
457.497	406.56
457.717	396.56
457.937	383.56
458.157	391.56
458.377	426.56
458.598	420.56
458.818	482.56
459.038	582.56
459.258	595.56
459.478	498.56
459.698	461.56
459.918	431.56
460.138	430.56
460.358	412.56
460.578	415.56
460.798	454.56
461.018	434.56
461.238	432.56
461.458	424.56
461.678	440.56
461.898	435.56
462.118	422.56
462.338	446.56
462.558	442.56
462.777	446.56
462.997	461.56
463.217	448.56
463.437	460.56
463.657	468.56
463.876	464.56
464.096	462.56
464.316	455.56
464.536	469.56
464.755	468.56
464.975	466.56
465.195	520.56
465.414	610.56
465.634	517.56
465.854	468.56
466.073	448.56
466.293	464.56
466.512	432.56
466.732	431.56
466.951	421.56
467.171	416.56
467.391	421.56
467.61	442.56
467.829	453.56
468.049	439.56
468.268	443.56
468.488	416.56
468.707	422.56
468.927	422.56
469.146	419.56
469.365	429.56
469.585	431.56
469.804	428.56
470.023	454.56
470.243	445.56
470.462	444.56
470.681	444.56
470.901	474.56
471.12	463.56
471.339	449.56
471.558	460.56
471.777	441.56
471.997	428.56
472.216	468.56
472.435	498.56
472.654	483.56
472.873	439.56
473.092	442.56
473.311	443.56
473.53	440.56
473.749	447.56
473.968	485.56
474.187	612.56
474.406	637.56
474.625	510.56
474.844	470.56
475.063	468.56
475.282	453.56
475.501	442.56
475.72	437.56
475.939	430.56
476.158	456.56
476.377	461.56
476.596	449.56
476.814	469.56
477.033	453.56
477.252	452.56
477.471	480.56
477.69	463.56
477.908	458.56
478.127	470.56
478.346	486.56
478.564	470.56
478.783	478.56
479.002	504.56
479.22	493.56
479.439	500.56
479.658	524.56
479.876	541.56
480.095	527.56
480.313	558.56
480.532	548.56
480.751	544.56
480.969	567.56
481.188	636.56
481.406	699.56
481.624	582.56
481.843	573.56
482.061	532.56
482.28	496.56
482.498	530.56
482.717	514.56
482.935	531.56
483.153	501.56
483.372	522.56
483.59	513.56
483.808	499.56
484.027	508.56
484.245	521.56
484.463	525.56
484.681	541.56
484.9	519.56
485.118	551.56
485.336	520.56
485.554	532.56
485.772	547.56
485.99	538.56
486.209	564.56
486.427	553.56
486.645	562.56
486.863	557.56
487.081	556.56
487.299	553.56
487.517	569.56
487.735	565.56
487.953	550.56
488.171	571.56
488.389	537.56
488.607	559.56
488.825	565.56
489.043	562.56
489.261	576.56
489.479	582.56
489.696	568.56
489.914	562.56
490.132	573.56
490.35	602.56
490.568	591.56
490.786	598.56
491.003	609.56
491.221	618.56
491.439	620.56
491.657	636.56
491.874	644.56
492.092	660.56
492.31	661.56
492.527	658.56
492.745	651.56
492.963	653.56
493.18	645.56
493.398	655.56
493.615	655.56
493.833	659.56
494.05	680.56
494.268	682.56
494.485	672.56
494.703	661.56
494.92	645.56
495.138	674.56
495.355	666.56
495.573	666.56
495.79	699.56
496.008	695.56
496.225	701.56
496.442	679.56
496.66	658.56
496.877	667.56
497.094	663.56
497.312	658.56
497.529	659.56
497.746	698.56
497.963	684.56
498.181	726.56
498.398	715.56
498.615	722.56
498.832	710.56
499.049	730.56
499.267	735.56
499.484	749.56
499.701	789.56
499.918	804.56
500.135	797.56
500.352	818.56
500.569	832.56
500.786	853.56
501.003	864.56
501.22	847.56
501.437	854.56
501.654	801.56
501.871	798.56
