Data from 1989.PennyLincolnUp.Lamp.En5.5.200Scan.071819.P2_HRD10591_17-26-14-974.txt Node
Date: Thu Jul 18 17:26:14 EDT 2019
User: cochatt
Spectrometer: HR+D1059
Trigger mode: 1
Integration Time (sec): 1.000000E-1
Scans to average: 1
Electric dark correction enabled: true
Nonlinearity correction enabled: false
Boxcar width: 0
XAxis mode: Wavelengths
Number of Pixels in Spectrum: 2048
>>>>>Begin Spectral Data<<<<<
223.165	-14.31
223.4	-14.31
223.635	-14.31
223.869	-12.31
224.104	-15.31
224.338	-19.31
224.573	-34.31
224.808	-9.31
225.042	3.69
225.277	-3.31
225.511	-0.31
225.746	-10.31
225.98	-3.31
226.215	24.69
226.449	23.69
226.683	10.69
226.918	24.69
227.152	34.69
227.387	26.69
227.621	29.69
227.856	49.69
228.09	39.69
228.324	56.69
228.559	64.69
228.793	65.69
229.027	118.69
229.262	118.69
229.496	122.69
229.73	140.69
229.964	146.69
230.199	131.69
230.433	124.69
230.667	125.69
230.901	118.69
231.136	116.69
231.37	107.69
231.604	117.69
231.838	117.69
232.072	115.69
232.306	107.69
232.541	118.69
232.775	132.69
233.009	118.69
233.243	116.69
233.477	107.69
233.711	110.69
233.945	117.69
234.179	117.69
234.413	117.69
234.647	122.69
234.881	135.69
235.115	114.69
235.349	109.69
235.583	128.69
235.817	128.69
236.051	128.69
236.285	143.69
236.519	132.69
236.753	130.69
236.987	161.69
237.221	200.69
237.455	261.69
237.689	210.69
237.922	148.69
238.156	154.69
238.39	146.69
238.624	147.69
238.858	128.69
239.091	143.69
239.325	128.69
239.559	132.69
239.793	144.69
240.027	141.69
240.26	157.69
240.494	167.69
240.728	153.69
240.961	172.69
241.195	166.69
241.429	154.69
241.662	158.69
241.896	139.69
242.13	146.69
242.363	135.69
242.597	148.69
242.83	149.69
243.064	156.69
243.298	170.69
243.531	152.69
243.765	156.69
243.998	142.69
244.232	152.69
244.465	171.69
244.699	159.69
244.932	142.69
245.166	148.69
245.399	152.69
245.633	169.69
245.866	161.69
246.099	156.69
246.333	161.69
246.566	166.69
246.8	159.69
247.033	182.69
247.266	162.69
247.5	176.69
247.733	181.69
247.966	208.69
248.2	194.69
248.433	185.69
248.666	195.69
248.899	217.69
249.133	231.69
249.366	219.69
249.599	210.69
249.832	204.69
250.066	199.69
250.299	230.69
250.532	233.69
250.765	240.69
250.998	280.69
251.231	268.69
251.465	252.69
251.698	242.69
251.931	236.69
252.164	223.69
252.397	247.69
252.63	217.69
252.863	237.69
253.096	258.69
253.329	252.69
253.562	261.69
253.795	253.69
254.028	252.69
254.261	256.69
254.494	287.69
254.727	298.69
254.96	319.69
255.193	324.69
255.426	283.69
255.659	280.69
255.892	285.69
256.124	307.69
256.357	327.69
256.59	274.69
256.823	268.69
257.056	271.69
257.289	237.69
257.521	230.69
257.754	241.69
257.987	243.69
258.22	252.69
258.452	255.69
258.685	235.69
258.918	230.69
259.151	257.69
259.383	261.69
259.616	263.69
259.849	258.69
260.081	268.69
260.314	285.69
260.547	315.69
260.779	284.69
261.012	268.69
261.244	258.69
261.477	260.69
261.71	247.69
261.942	264.69
262.175	262.69
262.407	275.69
262.64	266.69
262.872	248.69
263.105	246.69
263.337	252.69
263.57	236.69
263.802	250.69
264.035	262.69
264.267	249.69
264.499	249.69
264.732	227.69
264.964	242.69
265.197	248.69
265.429	236.69
265.661	256.69
265.894	256.69
266.126	233.69
266.358	240.69
266.591	269.69
266.823	263.69
267.055	261.69
267.287	271.69
267.52	253.69
267.752	248.69
267.984	253.69
268.216	269.69
268.448	280.69
268.681	267.69
268.913	266.69
269.145	299.69
269.377	321.69
269.609	306.69
269.841	306.69
270.073	317.69
270.306	347.69
270.538	355.69
270.77	370.69
271.002	352.69
271.234	337.69
271.466	340.69
271.698	339.69
271.93	370.69
272.162	372.69
272.394	362.69
272.626	348.69
272.858	339.69
273.09	328.69
273.322	328.69
273.553	301.69
273.785	304.69
274.017	311.69
274.249	320.69
274.481	317.69
274.713	303.69
274.945	328.69
275.176	308.69
275.408	306.69
275.64	301.69
275.872	300.69
276.104	317.69
276.335	305.69
276.567	331.69
276.799	343.69
277.031	368.69
277.262	362.69
277.494	360.69
277.726	363.69
277.957	335.69
278.189	315.69
278.421	336.69
278.652	315.69
278.884	307.69
279.115	312.69
279.347	305.69
279.579	317.69
279.81	324.69
280.042	316.69
280.273	318.69
280.505	324.69
280.736	289.69
280.968	308.69
281.199	294.69
281.431	320.69
281.662	314.69
281.894	328.69
282.125	321.69
282.356	339.69
282.588	353.69
282.819	354.69
283.051	329.69
283.282	312.69
283.513	308.69
283.745	326.69
283.976	335.69
284.207	317.69
284.439	335.69
284.67	323.69
284.901	315.69
285.132	306.69
285.364	305.69
285.595	294.69
285.826	325.69
286.057	309.69
286.288	302.69
286.52	325.69
286.751	317.69
286.982	324.69
287.213	311.69
287.444	318.69
287.675	344.69
287.906	343.69
288.138	344.69
288.369	338.69
288.6	325.69
288.831	323.69
289.062	321.69
289.293	336.69
289.524	334.69
289.755	328.69
289.986	333.69
290.217	345.69
290.448	323.69
290.679	324.69
290.91	320.69
291.141	317.69
291.371	330.69
291.602	314.69
291.833	314.69
292.064	300.69
292.295	350.69
292.526	332.69
292.757	321.69
292.987	325.69
293.218	332.69
293.449	329.69
293.68	331.69
293.91	323.69
294.141	321.69
294.372	323.69
294.603	307.69
294.833	322.69
295.064	325.69
295.295	338.69
295.525	313.69
295.756	326.69
295.987	355.69
296.217	384.69
296.448	380.69
296.679	350.69
296.909	345.69
297.14	326.69
297.37	339.69
297.601	342.69
297.831	327.69
298.062	343.69
298.292	335.69
298.523	321.69
298.753	344.69
298.984	337.69
299.214	322.69
299.445	340.69
299.675	337.69
299.905	341.69
300.136	354.69
300.366	327.69
300.597	340.69
300.827	371.69
301.057	361.69
301.288	348.69
301.518	346.69
301.748	367.69
301.979	342.69
302.209	374.69
302.439	365.69
302.669	361.69
302.9	363.69
303.13	369.69
303.36	351.69
303.59	370.69
303.82	372.69
304.051	376.69
304.281	361.69
304.511	363.69
304.741	361.69
304.971	353.69
305.201	350.69
305.431	364.69
305.661	372.69
305.891	346.69
306.121	378.69
306.352	390.69
306.582	378.69
306.812	375.69
307.042	375.69
307.272	366.69
307.502	378.69
307.731	361.69
307.961	379.69
308.191	374.69
308.421	376.69
308.651	370.69
308.881	382.69
309.111	385.69
309.341	370.69
309.571	401.69
309.8	408.69
310.03	406.69
310.26	430.69
310.49	420.69
310.72	440.69
310.949	472.69
311.179	481.69
311.409	452.69
311.639	449.69
311.868	435.69
312.098	441.69
312.328	427.69
312.557	453.69
312.787	489.69
313.017	454.69
313.246	437.69
313.476	441.69
313.706	417.69
313.935	425.69
314.165	454.69
314.394	457.69
314.624	458.69
314.853	445.69
315.083	425.69
315.312	405.69
315.542	404.69
315.771	422.69
316.001	432.69
316.23	416.69
316.46	410.69
316.689	422.69
316.919	436.69
317.148	441.69
317.377	448.69
317.607	434.69
317.836	435.69
318.065	444.69
318.295	430.69
318.524	412.69
318.753	428.69
318.983	425.69
319.212	412.69
319.441	425.69
319.67	422.69
319.9	430.69
320.129	435.69
320.358	448.69
320.587	432.69
320.816	449.69
321.046	473.69
321.275	455.69
321.504	456.69
321.733	446.69
321.962	474.69
322.191	465.69
322.42	485.69
322.649	498.69
322.878	508.69
323.108	521.69
323.337	579.69
323.566	599.69
323.795	621.69
324.024	707.69
324.253	838.69
324.482	1172.69
324.71	1824.69
324.939	2613.69
325.168	2300.69
325.397	1193.69
325.626	807.69
325.855	647.69
326.084	613.69
326.313	594.69
326.542	608.69
326.77	689.69
326.999	782.69
327.228	1073.69
327.457	1640.69
327.686	2027.69
327.914	1362.69
328.143	864.69
328.372	786.69
328.6	718.69
328.829	703.69
329.058	690.69
329.287	696.69
329.515	662.69
329.744	616.69
329.972	633.69
330.201	681.69
330.43	742.69
330.658	740.69
330.887	745.69
331.115	716.69
331.344	642.69
331.572	590.69
331.801	583.69
332.03	584.69
332.258	558.69
332.486	528.69
332.715	501.69
332.943	509.69
333.172	543.69
333.4	544.69
333.629	537.69
333.857	568.69
334.085	584.69
334.314	629.69
334.542	722.69
334.771	711.69
334.999	644.69
335.227	574.69
335.455	568.69
335.684	515.69
335.912	526.69
336.14	504.69
336.369	495.69
336.597	518.69
336.825	508.69
337.053	497.69
337.281	493.69
337.51	472.69
337.738	505.69
337.966	479.69
338.194	498.69
338.422	494.69
338.65	476.69
338.878	465.69
339.106	473.69
339.334	470.69
339.562	455.69
339.79	468.69
340.018	471.69
340.246	480.69
340.474	481.69
340.702	471.69
340.93	475.69
341.158	474.69
341.386	492.69
341.614	490.69
341.842	473.69
342.07	482.69
342.298	462.69
342.526	450.69
342.754	452.69
342.981	435.69
343.209	440.69
343.437	439.69
343.665	459.69
343.893	465.69
344.12	475.69
344.348	470.69
344.576	477.69
344.804	481.69
345.031	475.69
345.259	486.69
345.487	478.69
345.714	472.69
345.942	458.69
346.17	451.69
346.397	456.69
346.625	474.69
346.853	458.69
347.08	447.69
347.308	473.69
347.535	466.69
347.763	448.69
347.99	494.69
348.218	469.69
348.445	474.69
348.673	472.69
348.9	457.69
349.128	444.69
349.355	446.69
349.583	432.69
349.81	432.69
350.037	444.69
350.265	451.69
350.492	441.69
350.72	442.69
350.947	440.69
351.174	461.69
351.402	462.69
351.629	467.69
351.856	469.69
352.083	447.69
352.311	478.69
352.538	494.69
352.765	468.69
352.992	464.69
353.22	462.69
353.447	432.69
353.674	438.69
353.901	422.69
354.128	432.69
354.355	424.69
354.583	429.69
354.81	433.69
355.037	407.69
355.264	418.69
355.491	398.69
355.718	392.69
355.945	387.69
356.172	421.69
356.399	412.69
356.626	398.69
356.853	418.69
357.08	402.69
357.307	422.69
357.534	404.69
357.761	420.69
357.988	418.69
358.215	416.69
358.441	418.69
358.668	408.69
358.895	429.69
359.122	424.69
359.349	453.69
359.576	453.69
359.802	484.69
360.029	499.69
360.256	516.69
360.483	476.69
360.709	456.69
360.936	460.69
361.163	451.69
361.39	474.69
361.616	452.69
361.843	451.69
362.07	429.69
362.296	432.69
362.523	452.69
362.749	442.69
362.976	419.69
363.203	430.69
363.429	434.69
363.656	418.69
363.882	421.69
364.109	433.69
364.335	429.69
364.562	405.69
364.788	410.69
365.015	430.69
365.241	430.69
365.468	421.69
365.694	416.69
365.92	420.69
366.147	434.69
366.373	405.69
366.599	422.69
366.826	406.69
367.052	401.69
367.278	401.69
367.505	418.69
367.731	405.69
367.957	409.69
368.184	418.69
368.41	419.69
368.636	439.69
368.862	440.69
369.089	436.69
369.315	407.69
369.541	407.69
369.767	416.69
369.993	398.69
370.219	393.69
370.445	410.69
370.672	410.69
370.898	384.69
371.124	428.69
371.35	403.69
371.576	419.69
371.802	414.69
372.028	405.69
372.254	397.69
372.48	398.69
372.706	399.69
372.932	403.69
373.158	398.69
373.384	411.69
373.61	420.69
373.835	414.69
374.061	414.69
374.287	414.69
374.513	418.69
374.739	406.69
374.965	413.69
375.191	402.69
375.416	412.69
375.642	422.69
375.868	415.69
376.094	402.69
376.319	387.69
376.545	408.69
376.771	397.69
376.997	404.69
377.222	402.69
377.448	404.69
377.674	389.69
377.899	378.69
378.125	395.69
378.35	389.69
378.576	384.69
378.802	397.69
379.027	401.69
379.253	410.69
379.478	406.69
379.704	404.69
379.929	410.69
380.155	390.69
380.38	400.69
380.606	410.69
380.831	391.69
381.057	396.69
381.282	415.69
381.507	410.69
381.733	405.69
381.958	410.69
382.184	388.69
382.409	399.69
382.634	401.69
382.86	413.69
383.085	417.69
383.31	388.69
383.535	420.69
383.761	419.69
383.986	423.69
384.211	431.69
384.436	416.69
384.662	422.69
384.887	440.69
385.112	415.69
385.337	421.69
385.562	432.69
385.787	412.69
386.013	455.69
386.238	436.69
386.463	449.69
386.688	448.69
386.913	413.69
387.138	410.69
387.363	420.69
387.588	411.69
387.813	424.69
388.038	421.69
388.263	427.69
388.488	423.69
388.713	417.69
388.938	428.69
389.163	413.69
389.387	438.69
389.612	429.69
389.837	436.69
390.062	427.69
390.287	426.69
390.512	417.69
390.736	419.69
390.961	415.69
391.186	423.69
391.411	420.69
391.636	430.69
391.86	426.69
392.085	436.69
392.31	442.69
392.534	448.69
392.759	418.69
392.984	441.69
393.208	428.69
393.433	408.69
393.658	430.69
393.882	434.69
394.107	414.69
394.331	413.69
394.556	419.69
394.78	426.69
395.005	436.69
395.229	412.69
395.454	415.69
395.678	433.69
395.903	438.69
396.127	462.69
396.352	490.69
396.576	442.69
396.801	430.69
397.025	446.69
397.249	441.69
397.474	439.69
397.698	457.69
397.922	474.69
398.147	474.69
398.371	484.69
398.595	466.69
398.82	474.69
399.044	509.69
399.268	489.69
399.492	518.69
399.717	526.69
399.941	546.69
400.165	565.69
400.389	599.69
400.613	540.69
400.837	523.69
401.062	489.69
401.286	487.69
401.51	477.69
401.734	473.69
401.958	469.69
402.182	485.69
402.406	503.69
402.63	490.69
402.854	481.69
403.078	484.69
403.302	511.69
403.526	514.69
403.75	522.69
403.974	486.69
404.198	477.69
404.422	527.69
404.645	502.69
404.869	530.69
405.093	553.69
405.317	622.69
405.541	659.69
405.765	604.69
405.988	540.69
406.212	537.69
406.436	572.69
406.66	580.69
406.883	534.69
407.107	576.69
407.331	612.69
407.555	692.69
407.778	665.69
408.002	603.69
408.226	552.69
408.449	522.69
408.673	545.69
408.896	600.69
409.12	621.69
409.344	585.69
409.567	531.69
409.791	524.69
410.014	482.69
410.238	479.69
410.461	497.69
410.685	510.69
410.908	508.69
411.132	568.69
411.355	603.69
411.578	566.69
411.802	512.69
412.025	496.69
412.249	517.69
412.472	564.69
412.695	611.69
412.919	582.69
413.142	566.69
413.365	520.69
413.589	480.69
413.812	504.69
414.035	482.69
414.258	486.69
414.482	483.69
414.705	472.69
414.928	447.69
415.151	484.69
415.374	453.69
415.597	465.69
415.821	465.69
416.044	475.69
416.267	484.69
416.49	475.69
416.713	465.69
416.936	467.69
417.159	462.69
417.382	490.69
417.605	484.69
417.828	491.69
418.051	508.69
418.274	493.69
418.497	486.69
418.72	493.69
418.943	467.69
419.166	483.69
419.389	495.69
419.611	516.69
419.834	514.69
420.057	499.69
420.28	534.69
420.503	505.69
420.726	517.69
420.948	514.69
421.171	580.69
421.394	599.69
421.617	512.69
421.839	512.69
422.062	480.69
422.285	497.69
422.507	570.69
422.73	668.69
422.953	608.69
423.175	527.69
423.398	502.69
423.621	527.69
423.843	546.69
424.066	542.69
424.288	541.69
424.511	562.69
424.733	642.69
424.956	703.69
425.178	667.69
425.401	691.69
425.623	690.69
425.846	616.69
426.068	554.69
426.291	527.69
426.513	548.69
426.735	545.69
426.958	600.69
427.18	683.69
427.402	823.69
427.625	894.69
427.847	806.69
428.069	750.69
428.292	614.69
428.514	584.69
428.736	519.69
428.958	497.69
429.181	487.69
429.403	500.69
429.625	522.69
429.847	548.69
430.069	619.69
430.292	605.69
430.514	530.69
430.736	493.69
430.958	491.69
431.18	462.69
431.402	477.69
431.624	462.69
431.846	442.69
432.068	470.69
432.29	481.69
432.512	467.69
432.734	472.69
432.956	477.69
433.178	475.69
433.4	480.69
433.622	486.69
433.844	475.69
434.066	448.69
434.287	447.69
434.509	462.69
434.731	479.69
434.953	461.69
435.175	501.69
435.397	521.69
435.618	559.69
435.84	587.69
436.062	703.69
436.284	737.69
436.505	634.69
436.727	568.69
436.949	526.69
437.17	493.69
437.392	519.69
437.614	513.69
437.835	550.69
438.057	653.69
438.278	759.69
438.5	740.69
438.721	826.69
438.943	787.69
439.165	632.69
439.386	586.69
439.608	544.69
439.829	568.69
440.05	594.69
440.272	661.69
440.493	595.69
440.715	545.69
440.936	527.69
441.158	519.69
441.379	504.69
441.6	532.69
441.822	544.69
442.043	581.69
442.264	656.69
442.486	722.69
442.707	586.69
442.928	548.69
443.149	553.69
443.371	605.69
443.592	632.69
443.813	720.69
444.034	775.69
444.255	646.69
444.476	564.69
444.698	554.69
444.919	545.69
445.14	663.69
445.361	621.69
445.582	598.69
445.803	671.69
446.024	770.69
446.245	816.69
446.466	689.69
446.687	607.69
446.908	566.69
447.129	536.69
447.35	500.69
447.571	503.69
447.792	505.69
448.013	490.69
448.234	530.69
448.455	576.69
448.675	696.69
448.896	810.69
449.117	696.69
449.338	649.69
449.559	756.69
449.779	845.69
450	703.69
450.221	568.69
450.442	530.69
450.662	501.69
450.883	522.69
451.104	560.69
451.324	512.69
451.545	498.69
451.766	480.69
451.986	438.69
452.207	454.69
452.428	453.69
452.648	448.69
452.869	446.69
453.089	465.69
453.31	476.69
453.53	458.69
453.751	459.69
453.971	437.69
454.192	468.69
454.412	473.69
454.633	429.69
454.853	424.69
455.073	438.69
455.294	488.69
455.514	559.69
455.734	530.69
455.955	466.69
456.175	425.69
456.395	411.69
456.616	407.69
456.836	419.69
457.056	399.69
457.276	404.69
457.497	409.69
457.717	420.69
457.937	436.69
458.157	428.69
458.377	421.69
458.598	453.69
458.818	541.69
459.038	626.69
459.258	623.69
459.478	536.69
459.698	461.69
459.918	442.69
460.138	453.69
460.358	460.69
460.578	466.69
460.798	460.69
461.018	478.69
461.238	489.69
461.458	455.69
461.678	466.69
461.898	461.69
462.118	461.69
462.338	455.69
462.558	472.69
462.777	486.69
462.997	480.69
463.217	502.69
463.437	512.69
463.657	488.69
463.876	469.69
464.096	483.69
464.316	491.69
464.536	493.69
464.755	486.69
464.975	476.69
465.195	544.69
465.414	663.69
465.634	560.69
465.854	512.69
466.073	467.69
466.293	465.69
466.512	434.69
466.732	439.69
466.951	435.69
467.171	433.69
467.391	451.69
467.61	443.69
467.829	458.69
468.049	468.69
468.268	499.69
468.488	442.69
468.707	436.69
468.927	434.69
469.146	430.69
469.365	439.69
469.585	437.69
469.804	456.69
470.023	460.69
470.243	463.69
470.462	454.69
470.681	480.69
470.901	484.69
471.12	477.69
471.339	474.69
471.558	462.69
471.777	462.69
471.997	459.69
472.216	483.69
472.435	525.69
472.654	537.69
472.873	470.69
473.092	470.69
473.311	468.69
473.53	439.69
473.749	476.69
473.968	537.69
474.187	649.69
474.406	682.69
474.625	570.69
474.844	484.69
475.063	486.69
475.282	462.69
475.501	465.69
475.72	449.69
475.939	480.69
476.158	486.69
476.377	456.69
476.596	466.69
476.814	473.69
477.033	478.69
477.252	474.69
477.471	482.69
477.69	500.69
477.908	498.69
478.127	503.69
478.346	493.69
478.564	493.69
478.783	490.69
479.002	519.69
479.22	512.69
479.439	551.69
479.658	554.69
479.876	563.69
480.095	566.69
480.313	595.69
480.532	588.69
480.751	576.69
480.969	599.69
481.188	683.69
481.406	802.69
481.624	640.69
481.843	585.69
482.061	564.69
482.28	554.69
482.498	549.69
482.717	545.69
482.935	538.69
483.153	546.69
483.372	540.69
483.59	555.69
483.808	546.69
484.027	533.69
484.245	548.69
484.463	544.69
484.681	555.69
484.9	550.69
485.118	539.69
485.336	555.69
485.554	537.69
485.772	558.69
485.99	573.69
486.209	554.69
486.427	572.69
486.645	607.69
486.863	606.69
487.081	581.69
487.299	584.69
487.517	567.69
487.735	590.69
487.953	581.69
488.171	598.69
488.389	582.69
488.607	580.69
488.825	596.69
489.043	616.69
489.261	592.69
489.479	590.69
489.696	583.69
489.914	603.69
490.132	606.69
490.35	640.69
490.568	624.69
490.786	628.69
491.003	632.69
491.221	644.69
491.439	650.69
491.657	676.69
491.874	684.69
492.092	701.69
492.31	697.69
492.527	661.69
492.745	724.69
492.963	702.69
493.18	711.69
493.398	698.69
493.615	712.69
493.833	705.69
494.05	725.69
494.268	694.69
494.485	719.69
494.703	685.69
494.92	728.69
495.138	709.69
495.355	724.69
495.573	672.69
495.79	714.69
496.008	701.69
496.225	678.69
496.442	720.69
496.66	710.69
496.877	677.69
497.094	697.69
497.312	709.69
497.529	706.69
497.746	728.69
497.963	714.69
498.181	782.69
498.398	741.69
498.615	756.69
498.832	751.69
499.049	783.69
499.267	776.69
499.484	776.69
499.701	823.69
499.918	820.69
500.135	835.69
500.352	888.69
500.569	873.69
500.786	913.69
501.003	893.69
501.22	900.69
501.437	852.69
501.654	851.69
501.871	832.69
