Data from 1989.PennyLincolnUp.Lamp.En5.5.200Scan.071819.P2_HRD10591_17-23-58-974.txt Node
Date: Thu Jul 18 17:23:58 EDT 2019
User: cochatt
Spectrometer: HR+D1059
Trigger mode: 1
Integration Time (sec): 1.000000E-1
Scans to average: 1
Electric dark correction enabled: true
Nonlinearity correction enabled: false
Boxcar width: 0
XAxis mode: Wavelengths
Number of Pixels in Spectrum: 2048
>>>>>Begin Spectral Data<<<<<
223.165	-15.38
223.4	-15.38
223.635	-15.38
223.869	-13.38
224.104	-14.38
224.338	-8.38
224.573	-4.38
224.808	-14.38
225.042	-18.38
225.277	-12.38
225.511	-10.38
225.746	8.62
225.98	1.62
226.215	5.62
226.449	22.62
226.683	6.62
226.918	31.62
227.152	34.62
227.387	12.62
227.621	40.62
227.856	37.62
228.09	51.62
228.324	51.62
228.559	54.62
228.793	66.62
229.027	91.62
229.262	116.62
229.496	114.62
229.73	130.62
229.964	137.62
230.199	131.62
230.433	125.62
230.667	108.62
230.901	117.62
231.136	104.62
231.37	125.62
231.604	109.62
231.838	118.62
232.072	105.62
232.306	123.62
232.541	111.62
232.775	114.62
233.009	107.62
233.243	111.62
233.477	109.62
233.711	111.62
233.945	118.62
234.179	116.62
234.413	112.62
234.647	105.62
234.881	105.62
235.115	117.62
235.349	108.62
235.583	106.62
235.817	118.62
236.051	111.62
236.285	133.62
236.519	114.62
236.753	127.62
236.987	147.62
237.221	175.62
237.455	244.62
237.689	190.62
237.922	136.62
238.156	124.62
238.39	130.62
238.624	123.62
238.858	124.62
239.091	122.62
239.325	132.62
239.559	136.62
239.793	137.62
240.027	129.62
240.26	137.62
240.494	171.62
240.728	149.62
240.961	139.62
241.195	146.62
241.429	148.62
241.662	143.62
241.896	139.62
242.13	136.62
242.363	117.62
242.597	133.62
242.83	155.62
243.064	141.62
243.298	156.62
243.531	139.62
243.765	134.62
243.998	147.62
244.232	146.62
244.465	148.62
244.699	147.62
244.932	138.62
245.166	138.62
245.399	152.62
245.633	145.62
245.866	152.62
246.099	140.62
246.333	156.62
246.566	150.62
246.8	142.62
247.033	162.62
247.266	148.62
247.5	169.62
247.733	178.62
247.966	188.62
248.2	187.62
248.433	173.62
248.666	186.62
248.899	191.62
249.133	205.62
249.366	214.62
249.599	217.62
249.832	183.62
250.066	176.62
250.299	195.62
250.532	198.62
250.765	185.62
250.998	231.62
251.231	247.62
251.465	222.62
251.698	201.62
251.931	215.62
252.164	200.62
252.397	209.62
252.63	216.62
252.863	216.62
253.096	215.62
253.329	235.62
253.562	242.62
253.795	242.62
254.028	225.62
254.261	239.62
254.494	265.62
254.727	261.62
254.96	303.62
255.193	299.62
255.426	280.62
255.659	239.62
255.892	249.62
256.124	227.62
256.357	245.62
256.59	243.62
256.823	224.62
257.056	223.62
257.289	205.62
257.521	236.62
257.754	212.62
257.987	224.62
258.22	218.62
258.452	211.62
258.685	215.62
258.918	232.62
259.151	233.62
259.383	215.62
259.616	229.62
259.849	237.62
260.081	237.62
260.314	261.62
260.547	275.62
260.779	255.62
261.012	260.62
261.244	251.62
261.477	236.62
261.71	228.62
261.942	258.62
262.175	239.62
262.407	239.62
262.64	246.62
262.872	212.62
263.105	221.62
263.337	233.62
263.57	232.62
263.802	223.62
264.035	224.62
264.267	217.62
264.499	217.62
264.732	220.62
264.964	249.62
265.197	214.62
265.429	211.62
265.661	225.62
265.894	215.62
266.126	215.62
266.358	220.62
266.591	229.62
266.823	251.62
267.055	243.62
267.287	251.62
267.52	256.62
267.752	231.62
267.984	249.62
268.216	236.62
268.448	251.62
268.681	243.62
268.913	241.62
269.145	268.62
269.377	277.62
269.609	297.62
269.841	287.62
270.073	296.62
270.306	307.62
270.538	339.62
270.77	330.62
271.002	331.62
271.234	309.62
271.466	312.62
271.698	332.62
271.93	323.62
272.162	351.62
272.394	330.62
272.626	321.62
272.858	304.62
273.09	277.62
273.322	290.62
273.553	278.62
273.785	279.62
274.017	276.62
274.249	284.62
274.481	275.62
274.713	282.62
274.945	279.62
275.176	277.62
275.408	278.62
275.64	297.62
275.872	284.62
276.104	265.62
276.335	285.62
276.567	283.62
276.799	321.62
277.031	333.62
277.262	332.62
277.494	340.62
277.726	318.62
277.957	303.62
278.189	297.62
278.421	289.62
278.652	282.62
278.884	287.62
279.115	284.62
279.347	274.62
279.579	291.62
279.81	270.62
280.042	279.62
280.273	283.62
280.505	263.62
280.736	279.62
280.968	296.62
281.199	270.62
281.431	280.62
281.662	267.62
281.894	300.62
282.125	274.62
282.356	323.62
282.588	324.62
282.819	317.62
283.051	296.62
283.282	287.62
283.513	295.62
283.745	290.62
283.976	298.62
284.207	307.62
284.439	296.62
284.67	293.62
284.901	283.62
285.132	293.62
285.364	276.62
285.595	279.62
285.826	307.62
286.057	305.62
286.288	273.62
286.52	299.62
286.751	298.62
286.982	301.62
287.213	303.62
287.444	284.62
287.675	294.62
287.906	307.62
288.138	323.62
288.369	345.62
288.6	303.62
288.831	304.62
289.062	309.62
289.293	297.62
289.524	291.62
289.755	303.62
289.986	309.62
290.217	294.62
290.448	315.62
290.679	307.62
290.91	307.62
291.141	310.62
291.371	295.62
291.602	290.62
291.833	315.62
292.064	322.62
292.295	301.62
292.526	305.62
292.757	304.62
292.987	293.62
293.218	304.62
293.449	305.62
293.68	292.62
293.91	293.62
294.141	303.62
294.372	304.62
294.603	293.62
294.833	289.62
295.064	320.62
295.295	307.62
295.525	320.62
295.756	308.62
295.987	303.62
296.217	334.62
296.448	348.62
296.679	303.62
296.909	306.62
297.14	302.62
297.37	320.62
297.601	305.62
297.831	318.62
298.062	299.62
298.292	321.62
298.523	329.62
298.753	333.62
298.984	323.62
299.214	331.62
299.445	306.62
299.675	313.62
299.905	322.62
300.136	323.62
300.366	343.62
300.597	324.62
300.827	315.62
301.057	324.62
301.288	340.62
301.518	311.62
301.748	343.62
301.979	321.62
302.209	326.62
302.439	324.62
302.669	338.62
302.9	331.62
303.13	324.62
303.36	342.62
303.59	345.62
303.82	356.62
304.051	358.62
304.281	352.62
304.511	336.62
304.741	364.62
304.971	359.62
305.201	340.62
305.431	333.62
305.661	330.62
305.891	342.62
306.121	363.62
306.352	359.62
306.582	332.62
306.812	340.62
307.042	358.62
307.272	319.62
307.502	340.62
307.731	355.62
307.961	343.62
308.191	343.62
308.421	337.62
308.651	373.62
308.881	374.62
309.111	378.62
309.341	360.62
309.571	371.62
309.8	389.62
310.03	382.62
310.26	377.62
310.49	390.62
310.72	372.62
310.949	397.62
311.179	409.62
311.409	391.62
311.639	393.62
311.868	380.62
312.098	375.62
312.328	411.62
312.557	433.62
312.787	448.62
313.017	424.62
313.246	415.62
313.476	391.62
313.706	401.62
313.935	396.62
314.165	405.62
314.394	420.62
314.624	411.62
314.853	401.62
315.083	395.62
315.312	379.62
315.542	388.62
315.771	390.62
316.001	383.62
316.23	378.62
316.46	376.62
316.689	396.62
316.919	391.62
317.148	412.62
317.377	404.62
317.607	415.62
317.836	408.62
318.065	388.62
318.295	379.62
318.524	373.62
318.753	396.62
318.983	371.62
319.212	389.62
319.441	412.62
319.67	397.62
319.9	381.62
320.129	389.62
320.358	397.62
320.587	397.62
320.816	416.62
321.046	408.62
321.275	425.62
321.504	402.62
321.733	427.62
321.962	431.62
322.191	435.62
322.42	446.62
322.649	465.62
322.878	477.62
323.108	501.62
323.337	520.62
323.566	534.62
323.795	563.62
324.024	613.62
324.253	739.62
324.482	1084.62
324.71	1647.62
324.939	2323.62
325.168	2082.62
325.397	1068.62
325.626	685.62
325.855	580.62
326.084	549.62
326.313	534.62
326.542	552.62
326.77	619.62
326.999	684.62
327.228	944.62
327.457	1425.62
327.686	1780.62
327.914	1159.62
328.143	775.62
328.372	678.62
328.6	601.62
328.829	567.62
329.058	600.62
329.287	610.62
329.515	568.62
329.744	529.62
329.972	512.62
330.201	503.62
330.43	561.62
330.658	579.62
330.887	614.62
331.115	635.62
331.344	525.62
331.572	512.62
331.801	513.62
332.03	508.62
332.258	489.62
332.486	472.62
332.715	462.62
332.943	465.62
333.172	452.62
333.4	461.62
333.629	456.62
333.857	483.62
334.085	458.62
334.314	454.62
334.542	460.62
334.771	492.62
334.999	460.62
335.227	471.62
335.455	468.62
335.684	454.62
335.912	448.62
336.14	441.62
336.369	455.62
336.597	439.62
336.825	445.62
337.053	449.62
337.281	465.62
337.51	436.62
337.738	461.62
337.966	437.62
338.194	437.62
338.422	459.62
338.65	441.62
338.878	416.62
339.106	439.62
339.334	419.62
339.562	431.62
339.79	437.62
340.018	425.62
340.246	452.62
340.474	443.62
340.702	462.62
340.93	463.62
341.158	426.62
341.386	449.62
341.614	454.62
341.842	446.62
342.07	415.62
342.298	435.62
342.526	441.62
342.754	410.62
342.981	408.62
343.209	399.62
343.437	421.62
343.665	437.62
343.893	423.62
344.12	435.62
344.348	457.62
344.576	436.62
344.804	449.62
345.031	443.62
345.259	440.62
345.487	469.62
345.714	443.62
345.942	448.62
346.17	420.62
346.397	420.62
346.625	444.62
346.853	430.62
347.08	423.62
347.308	404.62
347.535	431.62
347.763	436.62
347.99	449.62
348.218	433.62
348.445	445.62
348.673	412.62
348.9	408.62
349.128	441.62
349.355	429.62
349.583	418.62
349.81	417.62
350.037	413.62
350.265	418.62
350.492	419.62
350.72	407.62
350.947	431.62
351.174	435.62
351.402	449.62
351.629	431.62
351.856	424.62
352.083	428.62
352.311	455.62
352.538	436.62
352.765	441.62
352.992	433.62
353.22	425.62
353.447	414.62
353.674	395.62
353.901	395.62
354.128	391.62
354.355	406.62
354.583	401.62
354.81	404.62
355.037	396.62
355.264	383.62
355.491	375.62
355.718	385.62
355.945	373.62
356.172	389.62
356.399	408.62
356.626	397.62
356.853	394.62
357.08	380.62
357.307	381.62
357.534	392.62
357.761	358.62
357.988	393.62
358.215	380.62
358.441	383.62
358.668	377.62
358.895	402.62
359.122	384.62
359.349	420.62
359.576	444.62
359.802	424.62
360.029	480.62
360.256	484.62
360.483	434.62
360.709	437.62
360.936	417.62
361.163	409.62
361.39	408.62
361.616	407.62
361.843	425.62
362.07	432.62
362.296	420.62
362.523	416.62
362.749	399.62
362.976	410.62
363.203	410.62
363.429	410.62
363.656	417.62
363.882	384.62
364.109	406.62
364.335	389.62
364.562	390.62
364.788	407.62
365.015	399.62
365.241	383.62
365.468	401.62
365.694	414.62
365.92	395.62
366.147	379.62
366.373	411.62
366.599	377.62
366.826	373.62
367.052	382.62
367.278	403.62
367.505	392.62
367.731	400.62
367.957	390.62
368.184	387.62
368.41	401.62
368.636	412.62
368.862	405.62
369.089	402.62
369.315	405.62
369.541	393.62
369.767	396.62
369.993	391.62
370.219	384.62
370.445	383.62
370.672	380.62
370.898	388.62
371.124	385.62
371.35	388.62
371.576	391.62
371.802	396.62
372.028	381.62
372.254	390.62
372.48	390.62
372.706	382.62
372.932	383.62
373.158	401.62
373.384	382.62
373.61	373.62
373.835	387.62
374.061	388.62
374.287	389.62
374.513	385.62
374.739	395.62
374.965	393.62
375.191	375.62
375.416	400.62
375.642	389.62
375.868	382.62
376.094	372.62
376.319	377.62
376.545	378.62
376.771	391.62
376.997	393.62
377.222	364.62
377.448	385.62
377.674	389.62
377.899	349.62
378.125	374.62
378.35	363.62
378.576	364.62
378.802	379.62
379.027	383.62
379.253	385.62
379.478	396.62
379.704	375.62
379.929	377.62
380.155	376.62
380.38	370.62
380.606	377.62
380.831	395.62
381.057	388.62
381.282	362.62
381.507	389.62
381.733	384.62
381.958	389.62
382.184	387.62
382.409	375.62
382.634	388.62
382.86	386.62
383.085	403.62
383.31	395.62
383.535	389.62
383.761	387.62
383.986	387.62
384.211	400.62
384.436	387.62
384.662	413.62
384.887	405.62
385.112	418.62
385.337	406.62
385.562	408.62
385.787	403.62
386.013	431.62
386.238	416.62
386.463	411.62
386.688	419.62
386.913	403.62
387.138	408.62
387.363	417.62
387.588	399.62
387.813	380.62
388.038	377.62
388.263	411.62
388.488	397.62
388.713	415.62
388.938	415.62
389.163	405.62
389.387	385.62
389.612	395.62
389.837	401.62
390.062	409.62
390.287	407.62
390.512	413.62
390.736	394.62
390.961	382.62
391.186	413.62
391.411	416.62
391.636	420.62
391.86	403.62
392.085	400.62
392.31	425.62
392.534	407.62
392.759	403.62
392.984	403.62
393.208	424.62
393.433	423.62
393.658	416.62
393.882	387.62
394.107	392.62
394.331	406.62
394.556	413.62
394.78	396.62
395.005	401.62
395.229	417.62
395.454	408.62
395.678	421.62
395.903	425.62
396.127	421.62
396.352	444.62
396.576	431.62
396.801	435.62
397.025	420.62
397.249	428.62
397.474	417.62
397.698	433.62
397.922	443.62
398.147	454.62
398.371	436.62
398.595	461.62
398.82	452.62
399.044	468.62
399.268	456.62
399.492	488.62
399.717	505.62
399.941	531.62
400.165	561.62
400.389	585.62
400.613	512.62
400.837	477.62
401.062	481.62
401.286	452.62
401.51	481.62
401.734	459.62
401.958	464.62
402.182	450.62
402.406	474.62
402.63	476.62
402.854	460.62
403.078	450.62
403.302	457.62
403.526	493.62
403.75	478.62
403.974	467.62
404.198	455.62
404.422	458.62
404.645	480.62
404.869	488.62
405.093	497.62
405.317	510.62
405.541	541.62
405.765	495.62
405.988	493.62
406.212	495.62
406.436	512.62
406.66	529.62
406.883	503.62
407.107	539.62
407.331	581.62
407.555	643.62
407.778	635.62
408.002	592.62
408.226	527.62
408.449	541.62
408.673	523.62
408.896	537.62
409.12	591.62
409.344	540.62
409.567	522.62
409.791	500.62
410.014	482.62
410.238	477.62
410.461	463.62
410.685	490.62
410.908	486.62
411.132	520.62
411.355	546.62
411.578	529.62
411.802	465.62
412.025	453.62
412.249	469.62
412.472	466.62
412.695	476.62
412.919	462.62
413.142	460.62
413.365	456.62
413.589	463.62
413.812	442.62
414.035	435.62
414.258	452.62
414.482	444.62
414.705	456.62
414.928	431.62
415.151	451.62
415.374	435.62
415.597	427.62
415.821	437.62
416.044	436.62
416.267	462.62
416.49	435.62
416.713	435.62
416.936	457.62
417.159	442.62
417.382	450.62
417.605	444.62
417.828	445.62
418.051	463.62
418.274	452.62
418.497	440.62
418.72	432.62
418.943	456.62
419.166	439.62
419.389	487.62
419.611	459.62
419.834	459.62
420.057	466.62
420.28	459.62
420.503	452.62
420.726	469.62
420.948	489.62
421.171	500.62
421.394	551.62
421.617	482.62
421.839	465.62
422.062	473.62
422.285	493.62
422.507	536.62
422.73	617.62
422.953	587.62
423.175	519.62
423.398	491.62
423.621	487.62
423.843	510.62
424.066	509.62
424.288	516.62
424.511	551.62
424.733	563.62
424.956	643.62
425.178	619.62
425.401	634.62
425.623	653.62
425.846	577.62
426.068	492.62
426.291	516.62
426.513	495.62
426.735	514.62
426.958	566.62
427.18	651.62
427.402	768.62
427.625	826.62
427.847	731.62
428.069	620.62
428.292	567.62
428.514	518.62
428.736	466.62
428.958	481.62
429.181	461.62
429.403	477.62
429.625	485.62
429.847	516.62
430.069	567.62
430.292	574.62
430.514	488.62
430.736	456.62
430.958	460.62
431.18	461.62
431.402	438.62
431.624	441.62
431.846	439.62
432.068	439.62
432.29	443.62
432.512	437.62
432.734	466.62
432.956	459.62
433.178	459.62
433.4	467.62
433.622	459.62
433.844	455.62
434.066	451.62
434.287	445.62
434.509	451.62
434.731	450.62
434.953	452.62
435.175	476.62
435.397	499.62
435.618	507.62
435.84	537.62
436.062	659.62
436.284	698.62
436.505	593.62
436.727	511.62
436.949	495.62
437.17	487.62
437.392	461.62
437.614	497.62
437.835	531.62
438.057	608.62
438.278	691.62
438.5	732.62
438.721	791.62
438.943	741.62
439.165	586.62
439.386	544.62
439.608	564.62
439.829	525.62
440.05	538.62
440.272	604.62
440.493	573.62
440.715	529.62
440.936	495.62
441.158	471.62
441.379	479.62
441.6	491.62
441.822	513.62
442.043	554.62
442.264	641.62
442.486	685.62
442.707	553.62
442.928	525.62
443.149	532.62
443.371	554.62
443.592	615.62
443.813	663.62
444.034	722.62
444.255	626.62
444.476	534.62
444.698	511.62
444.919	500.62
445.14	613.62
445.361	592.62
445.582	580.62
445.803	630.62
446.024	713.62
446.245	725.62
446.466	659.62
446.687	567.62
446.908	529.62
447.129	479.62
447.35	463.62
447.571	470.62
447.792	469.62
448.013	461.62
448.234	484.62
448.455	547.62
448.675	663.62
448.896	763.62
449.117	663.62
449.338	614.62
449.559	700.62
449.779	815.62
450	669.62
450.221	534.62
450.442	484.62
450.662	479.62
450.883	476.62
451.104	507.62
451.324	466.62
451.545	452.62
451.766	439.62
451.986	419.62
452.207	417.62
452.428	429.62
452.648	416.62
452.869	415.62
453.089	437.62
453.31	462.62
453.53	435.62
453.751	411.62
453.971	436.62
454.192	450.62
454.412	453.62
454.633	424.62
454.853	418.62
455.073	419.62
455.294	435.62
455.514	517.62
455.734	502.62
455.955	429.62
456.175	428.62
456.395	389.62
456.616	388.62
456.836	409.62
457.056	385.62
457.276	378.62
457.497	403.62
457.717	395.62
457.937	415.62
458.157	420.62
458.377	412.62
458.598	444.62
458.818	472.62
459.038	581.62
459.258	598.62
459.478	511.62
459.698	455.62
459.918	458.62
460.138	440.62
460.358	444.62
460.578	435.62
460.798	428.62
461.018	437.62
461.238	428.62
461.458	437.62
461.678	441.62
461.898	440.62
462.118	433.62
462.338	441.62
462.558	438.62
462.777	437.62
462.997	437.62
463.217	468.62
463.437	480.62
463.657	488.62
463.876	465.62
464.096	464.62
464.316	459.62
464.536	475.62
464.755	468.62
464.975	477.62
465.195	512.62
465.414	597.62
465.634	527.62
465.854	475.62
466.073	458.62
466.293	453.62
466.512	438.62
466.732	419.62
466.951	437.62
467.171	435.62
467.391	432.62
467.61	433.62
467.829	431.62
468.049	428.62
468.268	417.62
468.488	420.62
468.707	417.62
468.927	417.62
469.146	419.62
469.365	423.62
469.585	405.62
469.804	410.62
470.023	440.62
470.243	421.62
470.462	422.62
470.681	466.62
470.901	461.62
471.12	433.62
471.339	429.62
471.558	445.62
471.777	435.62
471.997	413.62
472.216	424.62
472.435	432.62
472.654	420.62
472.873	411.62
473.092	425.62
473.311	443.62
473.53	434.62
473.749	444.62
473.968	477.62
474.187	594.62
474.406	612.62
474.625	502.62
474.844	451.62
475.063	427.62
475.282	453.62
475.501	433.62
475.72	451.62
475.939	441.62
476.158	441.62
476.377	433.62
476.596	442.62
476.814	422.62
477.033	437.62
477.252	444.62
477.471	453.62
477.69	455.62
477.908	454.62
478.127	455.62
478.346	452.62
478.564	479.62
478.783	466.62
479.002	477.62
479.22	475.62
479.439	500.62
479.658	507.62
479.876	495.62
480.095	530.62
480.313	543.62
480.532	529.62
480.751	521.62
480.969	501.62
481.188	547.62
481.406	535.62
481.624	510.62
481.843	514.62
482.061	481.62
482.28	500.62
482.498	490.62
482.717	486.62
482.935	496.62
483.153	492.62
483.372	488.62
483.59	491.62
483.808	511.62
484.027	504.62
484.245	495.62
484.463	496.62
484.681	510.62
484.9	498.62
485.118	495.62
485.336	518.62
485.554	498.62
485.772	524.62
485.99	505.62
486.209	514.62
486.427	517.62
486.645	512.62
486.863	544.62
487.081	529.62
487.299	543.62
487.517	537.62
487.735	528.62
487.953	524.62
488.171	559.62
488.389	539.62
488.607	546.62
488.825	535.62
489.043	540.62
489.261	539.62
489.479	555.62
489.696	559.62
489.914	568.62
490.132	563.62
490.35	544.62
490.568	572.62
490.786	578.62
491.003	583.62
491.221	588.62
491.439	602.62
491.657	607.62
491.874	619.62
492.092	627.62
492.31	613.62
492.527	639.62
492.745	615.62
492.963	623.62
493.18	631.62
493.398	626.62
493.615	625.62
493.833	643.62
494.05	645.62
494.268	636.62
494.485	631.62
494.703	616.62
494.92	655.62
495.138	645.62
495.355	639.62
495.573	658.62
495.79	632.62
496.008	641.62
496.225	637.62
496.442	668.62
496.66	653.62
496.877	635.62
497.094	635.62
497.312	665.62
497.529	660.62
497.746	668.62
497.963	705.62
498.181	714.62
498.398	689.62
498.615	689.62
498.832	704.62
499.049	715.62
499.267	739.62
499.484	728.62
499.701	777.62
499.918	779.62
500.135	813.62
500.352	835.62
500.569	834.62
500.786	852.62
501.003	829.62
501.22	820.62
501.437	775.62
501.654	811.62
501.871	785.62
