Data from 1989.PennyLincolnUp.Lamp.En5.5.200Scan.071819.P2_HRD10591_17-23-25-972.txt Node
Date: Thu Jul 18 17:23:25 EDT 2019
User: cochatt
Spectrometer: HR+D1059
Trigger mode: 1
Integration Time (sec): 1.000000E-1
Scans to average: 1
Electric dark correction enabled: true
Nonlinearity correction enabled: false
Boxcar width: 0
XAxis mode: Wavelengths
Number of Pixels in Spectrum: 2048
>>>>>Begin Spectral Data<<<<<
223.165	-20.44
223.4	-20.44
223.635	-20.44
223.869	-11.44
224.104	-17.44
224.338	-11.44
224.573	-9.44
224.808	-11.44
225.042	-3.44
225.277	-10.44
225.511	-0.44
225.746	0.56
225.98	9.56
226.215	19.56
226.449	15.56
226.683	2.56
226.918	18.56
227.152	29.56
227.387	42.56
227.621	44.56
227.856	30.56
228.09	50.56
228.324	43.56
228.559	52.56
228.793	56.56
229.027	88.56
229.262	103.56
229.496	100.56
229.73	125.56
229.964	143.56
230.199	129.56
230.433	109.56
230.667	121.56
230.901	104.56
231.136	93.56
231.37	109.56
231.604	116.56
231.838	118.56
232.072	115.56
232.306	115.56
232.541	114.56
232.775	110.56
233.009	110.56
233.243	111.56
233.477	99.56
233.711	106.56
233.945	125.56
234.179	125.56
234.413	116.56
234.647	121.56
234.881	106.56
235.115	116.56
235.349	121.56
235.583	116.56
235.817	102.56
236.051	118.56
236.285	112.56
236.519	114.56
236.753	136.56
236.987	131.56
237.221	186.56
237.455	210.56
237.689	169.56
237.922	131.56
238.156	121.56
238.39	130.56
238.624	115.56
238.858	109.56
239.091	130.56
239.325	125.56
239.559	121.56
239.793	135.56
240.027	109.56
240.26	137.56
240.494	152.56
240.728	140.56
240.961	130.56
241.195	146.56
241.429	142.56
241.662	141.56
241.896	125.56
242.13	130.56
242.363	126.56
242.597	139.56
242.83	121.56
243.064	139.56
243.298	129.56
243.531	141.56
243.765	135.56
243.998	154.56
244.232	135.56
244.465	137.56
244.699	143.56
244.932	146.56
245.166	133.56
245.399	131.56
245.633	135.56
245.866	133.56
246.099	125.56
246.333	155.56
246.566	156.56
246.8	155.56
247.033	149.56
247.266	147.56
247.5	167.56
247.733	162.56
247.966	183.56
248.2	158.56
248.433	169.56
248.666	166.56
248.899	181.56
249.133	182.56
249.366	199.56
249.599	196.56
249.832	186.56
250.066	180.56
250.299	165.56
250.532	167.56
250.765	201.56
250.998	207.56
251.231	214.56
251.465	210.56
251.698	187.56
251.931	200.56
252.164	179.56
252.397	206.56
252.63	194.56
252.863	205.56
253.096	216.56
253.329	213.56
253.562	211.56
253.795	218.56
254.028	204.56
254.261	226.56
254.494	225.56
254.727	228.56
254.96	252.56
255.193	277.56
255.426	242.56
255.659	239.56
255.892	216.56
256.124	225.56
256.357	209.56
256.59	209.56
256.823	212.56
257.056	213.56
257.289	215.56
257.521	212.56
257.754	210.56
257.987	195.56
258.22	202.56
258.452	193.56
258.685	207.56
258.918	188.56
259.151	197.56
259.383	228.56
259.616	231.56
259.849	232.56
260.081	229.56
260.314	263.56
260.547	240.56
260.779	243.56
261.012	233.56
261.244	217.56
261.477	205.56
261.71	215.56
261.942	241.56
262.175	221.56
262.407	241.56
262.64	213.56
262.872	216.56
263.105	220.56
263.337	214.56
263.57	226.56
263.802	212.56
264.035	227.56
264.267	219.56
264.499	208.56
264.732	214.56
264.964	222.56
265.197	214.56
265.429	207.56
265.661	213.56
265.894	221.56
266.126	207.56
266.358	215.56
266.591	213.56
266.823	221.56
267.055	219.56
267.287	234.56
267.52	229.56
267.752	214.56
267.984	215.56
268.216	233.56
268.448	217.56
268.681	220.56
268.913	233.56
269.145	262.56
269.377	269.56
269.609	260.56
269.841	247.56
270.073	261.56
270.306	282.56
270.538	309.56
270.77	310.56
271.002	296.56
271.234	286.56
271.466	300.56
271.698	306.56
271.93	313.56
272.162	294.56
272.394	315.56
272.626	308.56
272.858	281.56
273.09	273.56
273.322	262.56
273.553	265.56
273.785	267.56
274.017	268.56
274.249	257.56
274.481	249.56
274.713	267.56
274.945	259.56
275.176	258.56
275.408	260.56
275.64	257.56
275.872	275.56
276.104	279.56
276.335	269.56
276.567	288.56
276.799	284.56
277.031	293.56
277.262	292.56
277.494	311.56
277.726	291.56
277.957	280.56
278.189	270.56
278.421	267.56
278.652	284.56
278.884	264.56
279.115	269.56
279.347	265.56
279.579	261.56
279.81	242.56
280.042	266.56
280.273	263.56
280.505	269.56
280.736	283.56
280.968	271.56
281.199	261.56
281.431	269.56
281.662	248.56
281.894	277.56
282.125	285.56
282.356	287.56
282.588	297.56
282.819	297.56
283.051	268.56
283.282	263.56
283.513	266.56
283.745	281.56
283.976	272.56
284.207	278.56
284.439	271.56
284.67	263.56
284.901	287.56
285.132	295.56
285.364	284.56
285.595	273.56
285.826	282.56
286.057	292.56
286.288	276.56
286.52	278.56
286.751	277.56
286.982	269.56
287.213	300.56
287.444	271.56
287.675	309.56
287.906	297.56
288.138	292.56
288.369	279.56
288.6	297.56
288.831	305.56
289.062	302.56
289.293	277.56
289.524	278.56
289.755	277.56
289.986	286.56
290.217	299.56
290.448	277.56
290.679	275.56
290.91	271.56
291.141	287.56
291.371	259.56
291.602	285.56
291.833	283.56
292.064	291.56
292.295	293.56
292.526	321.56
292.757	297.56
292.987	289.56
293.218	286.56
293.449	287.56
293.68	299.56
293.91	287.56
294.141	289.56
294.372	299.56
294.603	294.56
294.833	281.56
295.064	299.56
295.295	295.56
295.525	293.56
295.756	318.56
295.987	298.56
296.217	309.56
296.448	320.56
296.679	302.56
296.909	307.56
297.14	291.56
297.37	271.56
297.601	310.56
297.831	292.56
298.062	298.56
298.292	277.56
298.523	315.56
298.753	286.56
298.984	290.56
299.214	289.56
299.445	290.56
299.675	319.56
299.905	317.56
300.136	284.56
300.366	334.56
300.597	293.56
300.827	312.56
301.057	320.56
301.288	311.56
301.518	321.56
301.748	318.56
301.979	325.56
302.209	324.56
302.439	311.56
302.669	323.56
302.9	297.56
303.13	314.56
303.36	327.56
303.59	319.56
303.82	333.56
304.051	324.56
304.281	315.56
304.511	309.56
304.741	306.56
304.971	316.56
305.201	308.56
305.431	322.56
305.661	324.56
305.891	312.56
306.121	309.56
306.352	335.56
306.582	317.56
306.812	302.56
307.042	343.56
307.272	298.56
307.502	327.56
307.731	319.56
307.961	322.56
308.191	335.56
308.421	317.56
308.651	317.56
308.881	349.56
309.111	341.56
309.341	331.56
309.571	343.56
309.8	331.56
310.03	369.56
310.26	347.56
310.49	360.56
310.72	367.56
310.949	370.56
311.179	379.56
311.409	338.56
311.639	373.56
311.868	374.56
312.098	372.56
312.328	372.56
312.557	386.56
312.787	388.56
313.017	398.56
313.246	361.56
313.476	338.56
313.706	335.56
313.935	350.56
314.165	400.56
314.394	377.56
314.624	363.56
314.853	366.56
315.083	367.56
315.312	367.56
315.542	345.56
315.771	355.56
316.001	350.56
316.23	349.56
316.46	351.56
316.689	349.56
316.919	360.56
317.148	380.56
317.377	359.56
317.607	372.56
317.836	371.56
318.065	357.56
318.295	357.56
318.524	374.56
318.753	353.56
318.983	364.56
319.212	349.56
319.441	369.56
319.67	361.56
319.9	372.56
320.129	370.56
320.358	350.56
320.587	380.56
320.816	360.56
321.046	391.56
321.275	379.56
321.504	389.56
321.733	373.56
321.962	376.56
322.191	399.56
322.42	403.56
322.649	424.56
322.878	422.56
323.108	421.56
323.337	454.56
323.566	474.56
323.795	467.56
324.024	530.56
324.253	607.56
324.482	870.56
324.71	1265.56
324.939	1878.56
325.168	1647.56
325.397	857.56
325.626	583.56
325.855	505.56
326.084	461.56
326.313	449.56
326.542	457.56
326.77	519.56
326.999	582.56
327.228	785.56
327.457	1149.56
327.686	1400.56
327.914	911.56
328.143	659.56
328.372	539.56
328.6	530.56
328.829	510.56
329.058	492.56
329.287	534.56
329.515	503.56
329.744	477.56
329.972	460.56
330.201	449.56
330.43	473.56
330.658	487.56
330.887	536.56
331.115	529.56
331.344	473.56
331.572	438.56
331.801	438.56
332.03	429.56
332.258	443.56
332.486	430.56
332.715	412.56
332.943	414.56
333.172	404.56
333.4	433.56
333.629	411.56
333.857	435.56
334.085	421.56
334.314	440.56
334.542	421.56
334.771	432.56
334.999	445.56
335.227	390.56
335.455	400.56
335.684	419.56
335.912	417.56
336.14	438.56
336.369	435.56
336.597	405.56
336.825	440.56
337.053	404.56
337.281	405.56
337.51	414.56
337.738	407.56
337.966	422.56
338.194	414.56
338.422	414.56
338.65	399.56
338.878	406.56
339.106	401.56
339.334	413.56
339.562	398.56
339.79	398.56
340.018	411.56
340.246	414.56
340.474	410.56
340.702	389.56
340.93	391.56
341.158	406.56
341.386	403.56
341.614	393.56
341.842	409.56
342.07	413.56
342.298	390.56
342.526	372.56
342.754	388.56
342.981	391.56
343.209	397.56
343.437	413.56
343.665	386.56
343.893	409.56
344.12	390.56
344.348	417.56
344.576	382.56
344.804	419.56
345.031	411.56
345.259	421.56
345.487	419.56
345.714	407.56
345.942	386.56
346.17	384.56
346.397	383.56
346.625	382.56
346.853	386.56
347.08	390.56
347.308	386.56
347.535	409.56
347.763	384.56
347.99	389.56
348.218	407.56
348.445	394.56
348.673	400.56
348.9	405.56
349.128	407.56
349.355	359.56
349.583	387.56
349.81	383.56
350.037	377.56
350.265	382.56
350.492	381.56
350.72	374.56
350.947	366.56
351.174	398.56
351.402	391.56
351.629	393.56
351.856	381.56
352.083	395.56
352.311	399.56
352.538	403.56
352.765	390.56
352.992	395.56
353.22	407.56
353.447	389.56
353.674	377.56
353.901	374.56
354.128	364.56
354.355	375.56
354.583	351.56
354.81	363.56
355.037	372.56
355.264	355.56
355.491	342.56
355.718	345.56
355.945	359.56
356.172	348.56
356.399	359.56
356.626	343.56
356.853	351.56
357.08	370.56
357.307	375.56
357.534	359.56
357.761	365.56
357.988	352.56
358.215	356.56
358.441	362.56
358.668	363.56
358.895	348.56
359.122	373.56
359.349	358.56
359.576	360.56
359.802	386.56
360.029	419.56
360.256	430.56
360.483	425.56
360.709	381.56
360.936	405.56
361.163	384.56
361.39	389.56
361.616	389.56
361.843	377.56
362.07	377.56
362.296	391.56
362.523	376.56
362.749	383.56
362.976	367.56
363.203	372.56
363.429	371.56
363.656	362.56
363.882	348.56
364.109	375.56
364.335	361.56
364.562	362.56
364.788	382.56
365.015	365.56
365.241	348.56
365.468	345.56
365.694	357.56
365.92	353.56
366.147	349.56
366.373	359.56
366.599	347.56
366.826	363.56
367.052	364.56
367.278	365.56
367.505	362.56
367.731	367.56
367.957	359.56
368.184	378.56
368.41	343.56
368.636	389.56
368.862	382.56
369.089	373.56
369.315	379.56
369.541	363.56
369.767	366.56
369.993	355.56
370.219	373.56
370.445	383.56
370.672	398.56
370.898	357.56
371.124	348.56
371.35	367.56
371.576	343.56
371.802	362.56
372.028	353.56
372.254	350.56
372.48	358.56
372.706	350.56
372.932	364.56
373.158	365.56
373.384	356.56
373.61	348.56
373.835	370.56
374.061	367.56
374.287	370.56
374.513	382.56
374.739	374.56
374.965	366.56
375.191	354.56
375.416	373.56
375.642	379.56
375.868	377.56
376.094	375.56
376.319	363.56
376.545	361.56
376.771	348.56
376.997	361.56
377.222	362.56
377.448	366.56
377.674	358.56
377.899	365.56
378.125	367.56
378.35	367.56
378.576	340.56
378.802	350.56
379.027	353.56
379.253	361.56
379.478	357.56
379.704	352.56
379.929	351.56
380.155	355.56
380.38	359.56
380.606	349.56
380.831	361.56
381.057	357.56
381.282	348.56
381.507	349.56
381.733	354.56
381.958	356.56
382.184	341.56
382.409	372.56
382.634	378.56
382.86	366.56
383.085	383.56
383.31	369.56
383.535	388.56
383.761	378.56
383.986	375.56
384.211	362.56
384.436	389.56
384.662	375.56
384.887	378.56
385.112	389.56
385.337	373.56
385.562	379.56
385.787	381.56
386.013	412.56
386.238	396.56
386.463	383.56
386.688	377.56
386.913	395.56
387.138	373.56
387.363	397.56
387.588	391.56
387.813	381.56
388.038	391.56
388.263	383.56
388.488	391.56
388.713	380.56
388.938	382.56
389.163	370.56
389.387	404.56
389.612	380.56
389.837	403.56
390.062	381.56
390.287	383.56
390.512	383.56
390.736	375.56
390.961	384.56
391.186	388.56
391.411	379.56
391.636	375.56
391.86	398.56
392.085	404.56
392.31	389.56
392.534	381.56
392.759	406.56
392.984	381.56
393.208	386.56
393.433	396.56
393.658	389.56
393.882	380.56
394.107	382.56
394.331	384.56
394.556	383.56
394.78	387.56
395.005	400.56
395.229	387.56
395.454	397.56
395.678	418.56
395.903	389.56
396.127	410.56
396.352	413.56
396.576	371.56
396.801	380.56
397.025	392.56
397.249	389.56
397.474	419.56
397.698	412.56
397.922	443.56
398.147	418.56
398.371	443.56
398.595	418.56
398.82	419.56
399.044	434.56
399.268	437.56
399.492	461.56
399.717	465.56
399.941	499.56
400.165	517.56
400.389	560.56
400.613	476.56
400.837	455.56
401.062	453.56
401.286	435.56
401.51	449.56
401.734	428.56
401.958	414.56
402.182	430.56
402.406	461.56
402.63	433.56
402.854	441.56
403.078	428.56
403.302	426.56
403.526	445.56
403.75	429.56
403.974	433.56
404.198	434.56
404.422	419.56
404.645	444.56
404.869	453.56
405.093	463.56
405.317	479.56
405.541	493.56
405.765	484.56
405.988	468.56
406.212	455.56
406.436	467.56
406.66	502.56
406.883	467.56
407.107	492.56
407.331	515.56
407.555	580.56
407.778	595.56
408.002	539.56
408.226	510.56
408.449	488.56
408.673	514.56
408.896	522.56
409.12	539.56
409.344	527.56
409.567	463.56
409.791	462.56
410.014	430.56
410.238	433.56
410.461	457.56
410.685	458.56
410.908	462.56
411.132	483.56
411.355	532.56
411.578	513.56
411.802	458.56
412.025	425.56
412.249	426.56
412.472	455.56
412.695	451.56
412.919	446.56
413.142	437.56
413.365	421.56
413.589	421.56
413.812	422.56
414.035	400.56
414.258	430.56
414.482	411.56
414.705	430.56
414.928	414.56
415.151	421.56
415.374	413.56
415.597	408.56
415.821	410.56
416.044	410.56
416.267	419.56
416.49	428.56
416.713	424.56
416.936	406.56
417.159	411.56
417.382	434.56
417.605	422.56
417.828	430.56
418.051	437.56
418.274	439.56
418.497	425.56
418.72	419.56
418.943	423.56
419.166	422.56
419.389	449.56
419.611	445.56
419.834	433.56
420.057	428.56
420.28	394.56
420.503	415.56
420.726	421.56
420.948	446.56
421.171	477.56
421.394	521.56
421.617	463.56
421.839	455.56
422.062	430.56
422.285	462.56
422.507	499.56
422.73	595.56
422.953	558.56
423.175	469.56
423.398	449.56
423.621	426.56
423.843	476.56
424.066	479.56
424.288	465.56
424.511	494.56
424.733	554.56
424.956	622.56
425.178	588.56
425.401	580.56
425.623	598.56
425.846	506.56
426.068	478.56
426.291	452.56
426.513	461.56
426.735	482.56
426.958	537.56
427.18	592.56
427.402	704.56
427.625	808.56
427.847	662.56
428.069	565.56
428.292	511.56
428.514	484.56
428.736	455.56
428.958	438.56
429.181	434.56
429.403	435.56
429.625	440.56
429.847	467.56
430.069	537.56
430.292	521.56
430.514	478.56
430.736	437.56
430.958	431.56
431.18	411.56
431.402	415.56
431.624	417.56
431.846	397.56
432.068	405.56
432.29	425.56
432.512	427.56
432.734	417.56
432.956	418.56
433.178	426.56
433.4	435.56
433.622	413.56
433.844	433.56
434.066	391.56
434.287	424.56
434.509	413.56
434.731	425.56
434.953	437.56
435.175	437.56
435.397	466.56
435.618	455.56
435.84	498.56
436.062	604.56
436.284	644.56
436.505	523.56
436.727	482.56
436.949	453.56
437.17	430.56
437.392	427.56
437.614	458.56
437.835	475.56
438.057	568.56
438.278	675.56
438.5	657.56
438.721	716.56
438.943	652.56
439.165	550.56
439.386	492.56
439.608	501.56
439.829	482.56
440.05	501.56
440.272	550.56
440.493	523.56
440.715	475.56
440.936	453.56
441.158	441.56
441.379	444.56
441.6	421.56
441.822	469.56
442.043	510.56
442.264	553.56
442.486	619.56
442.707	547.56
442.928	490.56
443.149	481.56
443.371	523.56
443.592	557.56
443.813	604.56
444.034	701.56
444.255	577.56
444.476	514.56
444.698	485.56
444.919	470.56
445.14	556.56
445.361	495.56
445.582	515.56
445.803	565.56
446.024	655.56
446.245	689.56
446.466	599.56
446.687	525.56
446.908	487.56
447.129	454.56
447.35	453.56
447.571	453.56
447.792	425.56
448.013	438.56
448.234	428.56
448.455	514.56
448.675	605.56
448.896	741.56
449.117	612.56
449.338	581.56
449.559	659.56
449.779	755.56
450	597.56
450.221	476.56
450.442	430.56
450.662	421.56
450.883	443.56
451.104	433.56
451.324	445.56
451.545	432.56
451.766	385.56
451.986	395.56
452.207	395.56
452.428	390.56
452.648	395.56
452.869	393.56
453.089	391.56
453.31	407.56
453.53	392.56
453.751	375.56
453.971	399.56
454.192	405.56
454.412	387.56
454.633	375.56
454.853	388.56
455.073	376.56
455.294	433.56
455.514	469.56
455.734	472.56
455.955	388.56
456.175	382.56
456.395	373.56
456.616	364.56
456.836	376.56
457.056	369.56
457.276	363.56
457.497	371.56
457.717	364.56
457.937	357.56
458.157	370.56
458.377	395.56
458.598	387.56
458.818	441.56
459.038	516.56
459.258	512.56
459.478	457.56
459.698	428.56
459.918	411.56
460.138	406.56
460.358	405.56
460.578	388.56
460.798	408.56
461.018	413.56
461.238	410.56
461.458	413.56
461.678	417.56
461.898	419.56
462.118	402.56
462.338	434.56
462.558	411.56
462.777	430.56
462.997	427.56
463.217	424.56
463.437	451.56
463.657	430.56
463.876	449.56
464.096	441.56
464.316	435.56
464.536	442.56
464.755	440.56
464.975	447.56
465.195	483.56
465.414	498.56
465.634	455.56
465.854	425.56
466.073	427.56
466.293	389.56
466.512	406.56
466.732	374.56
466.951	386.56
467.171	390.56
467.391	389.56
467.61	398.56
467.829	421.56
468.049	397.56
468.268	376.56
468.488	397.56
468.707	393.56
468.927	379.56
469.146	388.56
469.365	371.56
469.585	389.56
469.804	397.56
470.023	411.56
470.243	400.56
470.462	410.56
470.681	419.56
470.901	429.56
471.12	409.56
471.339	401.56
471.558	411.56
471.777	409.56
471.997	386.56
472.216	392.56
472.435	379.56
472.654	389.56
472.873	391.56
473.092	402.56
473.311	381.56
473.53	399.56
473.749	407.56
473.968	457.56
474.187	527.56
474.406	547.56
474.625	460.56
474.844	405.56
475.063	405.56
475.282	400.56
475.501	407.56
475.72	413.56
475.939	409.56
476.158	400.56
476.377	409.56
476.596	418.56
476.814	429.56
477.033	439.56
477.252	439.56
477.471	431.56
477.69	420.56
477.908	431.56
478.127	447.56
478.346	419.56
478.564	469.56
478.783	450.56
479.002	445.56
479.22	450.56
479.439	463.56
479.658	480.56
479.876	467.56
480.095	451.56
480.313	509.56
480.532	490.56
480.751	486.56
480.969	495.56
481.188	486.56
481.406	478.56
481.624	490.56
481.843	472.56
482.061	469.56
482.28	471.56
482.498	508.56
482.717	475.56
482.935	466.56
483.153	479.56
483.372	475.56
483.59	481.56
483.808	484.56
484.027	469.56
484.245	484.56
484.463	460.56
484.681	474.56
484.9	507.56
485.118	489.56
485.336	482.56
485.554	485.56
485.772	467.56
485.99	469.56
486.209	484.56
486.427	486.56
486.645	490.56
486.863	523.56
487.081	519.56
487.299	489.56
487.517	486.56
487.735	503.56
487.953	513.56
488.171	488.56
488.389	503.56
488.607	508.56
488.825	511.56
489.043	488.56
489.261	511.56
489.479	512.56
489.696	508.56
489.914	510.56
490.132	507.56
490.35	510.56
490.568	523.56
490.786	515.56
491.003	540.56
491.221	547.56
491.439	563.56
491.657	576.56
491.874	563.56
492.092	567.56
492.31	578.56
492.527	593.56
492.745	553.56
492.963	537.56
493.18	570.56
493.398	573.56
493.615	575.56
493.833	579.56
494.05	572.56
494.268	588.56
494.485	595.56
494.703	580.56
494.92	576.56
495.138	587.56
495.355	601.56
495.573	602.56
495.79	615.56
496.008	582.56
496.225	600.56
496.442	605.56
496.66	597.56
496.877	589.56
497.094	613.56
497.312	603.56
497.529	616.56
497.746	615.56
497.963	637.56
498.181	657.56
498.398	632.56
498.615	660.56
498.832	642.56
499.049	669.56
499.267	673.56
499.484	689.56
499.701	714.56
499.918	771.56
500.135	770.56
500.352	755.56
500.569	802.56
500.786	798.56
501.003	785.56
501.22	799.56
501.437	745.56
501.654	760.56
501.871	758.56
502.088	713.56
