Data from 1989.PennyLincolnUp.Lamp.En5.5.200Scan.071819.P2_HRD10591_17-24-29-973.txt Node
Date: Thu Jul 18 17:24:29 EDT 2019
User: cochatt
Spectrometer: HR+D1059
Trigger mode: 1
Integration Time (sec): 1.000000E-1
Scans to average: 1
Electric dark correction enabled: true
Nonlinearity correction enabled: false
Boxcar width: 0
XAxis mode: Wavelengths
Number of Pixels in Spectrum: 2048
>>>>>Begin Spectral Data<<<<<
223.165	-0.5
223.4	-0.5
223.635	-0.5
223.869	-17.5
224.104	-17.5
224.338	1.5
224.573	-14.5
224.808	-6.5
225.042	-14.5
225.277	-5.5
225.511	-4.5
225.746	2.5
225.98	-2.5
226.215	16.5
226.449	18.5
226.683	15.5
226.918	19.5
227.152	9.5
227.387	21.5
227.621	39.5
227.856	47.5
228.09	49.5
228.324	50.5
228.559	67.5
228.793	72.5
229.027	96.5
229.262	128.5
229.496	116.5
229.73	149.5
229.964	152.5
230.199	139.5
230.433	131.5
230.667	123.5
230.901	129.5
231.136	117.5
231.37	122.5
231.604	132.5
231.838	111.5
232.072	119.5
232.306	127.5
232.541	124.5
232.775	123.5
233.009	111.5
233.243	116.5
233.477	123.5
233.711	125.5
233.945	114.5
234.179	121.5
234.413	129.5
234.647	106.5
234.881	128.5
235.115	126.5
235.349	118.5
235.583	130.5
235.817	144.5
236.051	122.5
236.285	133.5
236.519	121.5
236.753	133.5
236.987	159.5
237.221	203.5
237.455	251.5
237.689	196.5
237.922	149.5
238.156	139.5
238.39	138.5
238.624	131.5
238.858	137.5
239.091	137.5
239.325	130.5
239.559	135.5
239.793	137.5
240.027	147.5
240.26	154.5
240.494	167.5
240.728	150.5
240.961	151.5
241.195	165.5
241.429	167.5
241.662	146.5
241.896	139.5
242.13	146.5
242.363	146.5
242.597	139.5
242.83	141.5
243.064	142.5
243.298	141.5
243.531	160.5
243.765	151.5
243.998	141.5
244.232	151.5
244.465	158.5
244.699	156.5
244.932	137.5
245.166	158.5
245.399	151.5
245.633	143.5
245.866	162.5
246.099	147.5
246.333	159.5
246.566	159.5
246.8	163.5
247.033	169.5
247.266	190.5
247.5	168.5
247.733	178.5
247.966	170.5
248.2	179.5
248.433	198.5
248.666	169.5
248.899	202.5
249.133	216.5
249.366	215.5
249.599	221.5
249.832	200.5
250.066	203.5
250.299	184.5
250.532	219.5
250.765	222.5
250.998	238.5
251.231	255.5
251.465	241.5
251.698	219.5
251.931	230.5
252.164	224.5
252.397	214.5
252.63	217.5
252.863	223.5
253.096	224.5
253.329	264.5
253.562	238.5
253.795	242.5
254.028	238.5
254.261	222.5
254.494	243.5
254.727	282.5
254.96	312.5
255.193	293.5
255.426	290.5
255.659	267.5
255.892	245.5
256.124	243.5
256.357	237.5
256.59	240.5
256.823	232.5
257.056	221.5
257.289	231.5
257.521	235.5
257.754	242.5
257.987	220.5
258.22	229.5
258.452	238.5
258.685	235.5
258.918	227.5
259.151	237.5
259.383	225.5
259.616	243.5
259.849	259.5
260.081	265.5
260.314	269.5
260.547	280.5
260.779	279.5
261.012	263.5
261.244	246.5
261.477	237.5
261.71	240.5
261.942	242.5
262.175	268.5
262.407	267.5
262.64	241.5
262.872	241.5
263.105	251.5
263.337	223.5
263.57	227.5
263.802	233.5
264.035	234.5
264.267	236.5
264.499	227.5
264.732	225.5
264.964	236.5
265.197	228.5
265.429	223.5
265.661	229.5
265.894	232.5
266.126	234.5
266.358	242.5
266.591	240.5
266.823	235.5
267.055	247.5
267.287	254.5
267.52	253.5
267.752	268.5
267.984	266.5
268.216	248.5
268.448	251.5
268.681	247.5
268.913	270.5
269.145	305.5
269.377	295.5
269.609	297.5
269.841	301.5
270.073	314.5
270.306	304.5
270.538	350.5
270.77	339.5
271.002	323.5
271.234	327.5
271.466	330.5
271.698	336.5
271.93	359.5
272.162	357.5
272.394	343.5
272.626	347.5
272.858	325.5
273.09	314.5
273.322	300.5
273.553	311.5
273.785	297.5
274.017	293.5
274.249	284.5
274.481	282.5
274.713	283.5
274.945	289.5
275.176	278.5
275.408	297.5
275.64	299.5
275.872	282.5
276.104	276.5
276.335	285.5
276.567	305.5
276.799	304.5
277.031	318.5
277.262	357.5
277.494	347.5
277.726	318.5
277.957	320.5
278.189	306.5
278.421	306.5
278.652	288.5
278.884	286.5
279.115	289.5
279.347	289.5
279.579	294.5
279.81	283.5
280.042	281.5
280.273	290.5
280.505	289.5
280.736	293.5
280.968	289.5
281.199	301.5
281.431	273.5
281.662	290.5
281.894	302.5
282.125	277.5
282.356	320.5
282.588	354.5
282.819	338.5
283.051	311.5
283.282	298.5
283.513	288.5
283.745	310.5
283.976	305.5
284.207	303.5
284.439	298.5
284.67	311.5
284.901	296.5
285.132	285.5
285.364	298.5
285.595	300.5
285.826	333.5
286.057	311.5
286.288	296.5
286.52	285.5
286.751	295.5
286.982	301.5
287.213	281.5
287.444	303.5
287.675	301.5
287.906	312.5
288.138	324.5
288.369	331.5
288.6	326.5
288.831	332.5
289.062	337.5
289.293	327.5
289.524	310.5
289.755	315.5
289.986	300.5
290.217	306.5
290.448	341.5
290.679	309.5
290.91	315.5
291.141	314.5
291.371	317.5
291.602	306.5
291.833	319.5
292.064	314.5
292.295	319.5
292.526	304.5
292.757	321.5
292.987	312.5
293.218	315.5
293.449	299.5
293.68	307.5
293.91	326.5
294.141	326.5
294.372	309.5
294.603	312.5
294.833	311.5
295.064	306.5
295.295	299.5
295.525	299.5
295.756	319.5
295.987	326.5
296.217	329.5
296.448	350.5
296.679	336.5
296.909	335.5
297.14	326.5
297.37	321.5
297.601	327.5
297.831	306.5
298.062	307.5
298.292	323.5
298.523	320.5
298.753	337.5
298.984	329.5
299.214	331.5
299.445	343.5
299.675	348.5
299.905	334.5
300.136	334.5
300.366	321.5
300.597	325.5
300.827	341.5
301.057	337.5
301.288	330.5
301.518	364.5
301.748	335.5
301.979	354.5
302.209	363.5
302.439	367.5
302.669	339.5
302.9	335.5
303.13	344.5
303.36	343.5
303.59	358.5
303.82	353.5
304.051	354.5
304.281	366.5
304.511	351.5
304.741	338.5
304.971	329.5
305.201	335.5
305.431	338.5
305.661	332.5
305.891	345.5
306.121	366.5
306.352	372.5
306.582	343.5
306.812	348.5
307.042	350.5
307.272	339.5
307.502	350.5
307.731	347.5
307.961	354.5
308.191	338.5
308.421	368.5
308.651	361.5
308.881	358.5
309.111	386.5
309.341	368.5
309.571	385.5
309.8	370.5
310.03	391.5
310.26	393.5
310.49	395.5
310.72	399.5
310.949	414.5
311.179	423.5
311.409	407.5
311.639	401.5
311.868	413.5
312.098	406.5
312.328	415.5
312.557	443.5
312.787	437.5
313.017	436.5
313.246	423.5
313.476	405.5
313.706	397.5
313.935	406.5
314.165	409.5
314.394	427.5
314.624	429.5
314.853	411.5
315.083	397.5
315.312	413.5
315.542	422.5
315.771	391.5
316.001	409.5
316.23	391.5
316.46	398.5
316.689	419.5
316.919	405.5
317.148	426.5
317.377	431.5
317.607	416.5
317.836	393.5
318.065	397.5
318.295	414.5
318.524	390.5
318.753	403.5
318.983	416.5
319.212	423.5
319.441	406.5
319.67	423.5
319.9	413.5
320.129	418.5
320.358	404.5
320.587	409.5
320.816	419.5
321.046	429.5
321.275	453.5
321.504	424.5
321.733	419.5
321.962	441.5
322.191	449.5
322.42	459.5
322.649	454.5
322.878	489.5
323.108	510.5
323.337	541.5
323.566	551.5
323.795	598.5
324.024	632.5
324.253	805.5
324.482	1143.5
324.71	1738.5
324.939	2468.5
325.168	2173.5
325.397	1117.5
325.626	763.5
325.855	618.5
326.084	565.5
326.313	539.5
326.542	566.5
326.77	604.5
326.999	737.5
327.228	990.5
327.457	1533.5
327.686	1862.5
327.914	1246.5
328.143	805.5
328.372	699.5
328.6	643.5
328.829	610.5
329.058	629.5
329.287	637.5
329.515	601.5
329.744	515.5
329.972	526.5
330.201	535.5
330.43	563.5
330.658	605.5
330.887	666.5
331.115	658.5
331.344	571.5
331.572	537.5
331.801	520.5
332.03	514.5
332.258	501.5
332.486	484.5
332.715	469.5
332.943	459.5
333.172	463.5
333.4	475.5
333.629	474.5
333.857	492.5
334.085	497.5
334.314	485.5
334.542	478.5
334.771	497.5
334.999	471.5
335.227	484.5
335.455	469.5
335.684	470.5
335.912	450.5
336.14	457.5
336.369	464.5
336.597	478.5
336.825	480.5
337.053	464.5
337.281	463.5
337.51	445.5
337.738	466.5
337.966	464.5
338.194	473.5
338.422	472.5
338.65	464.5
338.878	457.5
339.106	450.5
339.334	434.5
339.562	435.5
339.79	433.5
340.018	459.5
340.246	453.5
340.474	441.5
340.702	473.5
340.93	462.5
341.158	453.5
341.386	451.5
341.614	456.5
341.842	427.5
342.07	421.5
342.298	439.5
342.526	429.5
342.754	440.5
342.981	437.5
343.209	427.5
343.437	426.5
343.665	444.5
343.893	446.5
344.12	461.5
344.348	451.5
344.576	449.5
344.804	468.5
345.031	471.5
345.259	486.5
345.487	450.5
345.714	449.5
345.942	437.5
346.17	445.5
346.397	417.5
346.625	430.5
346.853	439.5
347.08	434.5
347.308	440.5
347.535	438.5
347.763	441.5
347.99	433.5
348.218	443.5
348.445	444.5
348.673	470.5
348.9	428.5
349.128	444.5
349.355	408.5
349.583	408.5
349.81	418.5
350.037	417.5
350.265	414.5
350.492	421.5
350.72	402.5
350.947	419.5
351.174	444.5
351.402	458.5
351.629	442.5
351.856	433.5
352.083	456.5
352.311	459.5
352.538	449.5
352.765	454.5
352.992	447.5
353.22	429.5
353.447	436.5
353.674	413.5
353.901	415.5
354.128	401.5
354.355	401.5
354.583	403.5
354.81	386.5
355.037	402.5
355.264	398.5
355.491	385.5
355.718	401.5
355.945	400.5
356.172	397.5
356.399	399.5
356.626	394.5
356.853	396.5
357.08	407.5
357.307	403.5
357.534	390.5
357.761	385.5
357.988	399.5
358.215	382.5
358.441	398.5
358.668	399.5
358.895	394.5
359.122	408.5
359.349	411.5
359.576	422.5
359.802	433.5
360.029	473.5
360.256	494.5
360.483	453.5
360.709	442.5
360.936	433.5
361.163	426.5
361.39	427.5
361.616	428.5
361.843	422.5
362.07	431.5
362.296	449.5
362.523	423.5
362.749	411.5
362.976	422.5
363.203	412.5
363.429	394.5
363.656	395.5
363.882	410.5
364.109	401.5
364.335	409.5
364.562	392.5
364.788	419.5
365.015	421.5
365.241	402.5
365.468	397.5
365.694	410.5
365.92	414.5
366.147	385.5
366.373	417.5
366.599	419.5
366.826	396.5
367.052	401.5
367.278	395.5
367.505	404.5
367.731	394.5
367.957	395.5
368.184	401.5
368.41	401.5
368.636	397.5
368.862	419.5
369.089	413.5
369.315	425.5
369.541	416.5
369.767	396.5
369.993	407.5
370.219	382.5
370.445	390.5
370.672	383.5
370.898	388.5
371.124	397.5
371.35	393.5
371.576	405.5
371.802	391.5
372.028	401.5
372.254	379.5
372.48	392.5
372.706	410.5
372.932	393.5
373.158	381.5
373.384	391.5
373.61	391.5
373.835	375.5
374.061	393.5
374.287	397.5
374.513	414.5
374.739	406.5
374.965	401.5
375.191	405.5
375.416	393.5
375.642	384.5
375.868	416.5
376.094	389.5
376.319	395.5
376.545	386.5
376.771	387.5
376.997	399.5
377.222	401.5
377.448	401.5
377.674	385.5
377.899	382.5
378.125	389.5
378.35	389.5
378.576	378.5
378.802	399.5
379.027	381.5
379.253	398.5
379.478	390.5
379.704	388.5
379.929	385.5
380.155	407.5
380.38	407.5
380.606	396.5
380.831	382.5
381.057	392.5
381.282	385.5
381.507	405.5
381.733	399.5
381.958	417.5
382.184	386.5
382.409	381.5
382.634	398.5
382.86	398.5
383.085	402.5
383.31	400.5
383.535	416.5
383.761	387.5
383.986	407.5
384.211	395.5
384.436	405.5
384.662	401.5
384.887	437.5
385.112	417.5
385.337	392.5
385.562	409.5
385.787	414.5
386.013	430.5
386.238	425.5
386.463	419.5
386.688	413.5
386.913	401.5
387.138	415.5
387.363	401.5
387.588	409.5
387.813	425.5
388.038	412.5
388.263	407.5
388.488	419.5
388.713	414.5
388.938	427.5
389.163	415.5
389.387	411.5
389.612	403.5
389.837	422.5
390.062	425.5
390.287	429.5
390.512	398.5
390.736	421.5
390.961	405.5
391.186	427.5
391.411	423.5
391.636	408.5
391.86	410.5
392.085	421.5
392.31	419.5
392.534	428.5
392.759	414.5
392.984	421.5
393.208	416.5
393.433	412.5
393.658	411.5
393.882	414.5
394.107	407.5
394.331	417.5
394.556	418.5
394.78	405.5
395.005	425.5
395.229	403.5
395.454	425.5
395.678	443.5
395.903	418.5
396.127	476.5
396.352	472.5
396.576	425.5
396.801	426.5
397.025	427.5
397.249	425.5
397.474	456.5
397.698	451.5
397.922	436.5
398.147	462.5
398.371	480.5
398.595	479.5
398.82	455.5
399.044	451.5
399.268	465.5
399.492	489.5
399.717	516.5
399.941	533.5
400.165	569.5
400.389	571.5
400.613	529.5
400.837	497.5
401.062	478.5
401.286	470.5
401.51	463.5
401.734	457.5
401.958	461.5
402.182	461.5
402.406	474.5
402.63	465.5
402.854	494.5
403.078	460.5
403.302	479.5
403.526	480.5
403.75	478.5
403.974	476.5
404.198	468.5
404.422	478.5
404.645	472.5
404.869	491.5
405.093	489.5
405.317	532.5
405.541	555.5
405.765	510.5
405.988	490.5
406.212	529.5
406.436	551.5
406.66	552.5
406.883	537.5
407.107	553.5
407.331	604.5
407.555	650.5
407.778	633.5
408.002	582.5
408.226	541.5
408.449	537.5
408.673	550.5
408.896	560.5
409.12	620.5
409.344	561.5
409.567	510.5
409.791	496.5
410.014	467.5
410.238	474.5
410.461	497.5
410.685	491.5
410.908	505.5
411.132	529.5
411.355	566.5
411.578	551.5
411.802	478.5
412.025	468.5
412.249	472.5
412.472	475.5
412.695	499.5
412.919	495.5
413.142	485.5
413.365	448.5
413.589	461.5
413.812	473.5
414.035	459.5
414.258	448.5
414.482	437.5
414.705	435.5
414.928	433.5
415.151	432.5
415.374	449.5
415.597	453.5
415.821	459.5
416.044	431.5
416.267	457.5
416.49	443.5
416.713	443.5
416.936	440.5
417.159	428.5
417.382	464.5
417.605	456.5
417.828	460.5
418.051	505.5
418.274	479.5
418.497	449.5
418.72	444.5
418.943	456.5
419.166	461.5
419.389	479.5
419.611	460.5
419.834	467.5
420.057	460.5
420.28	482.5
420.503	466.5
420.726	438.5
420.948	497.5
421.171	535.5
421.394	559.5
421.617	492.5
421.839	477.5
422.062	496.5
422.285	494.5
422.507	538.5
422.73	632.5
422.953	631.5
423.175	523.5
423.398	497.5
423.621	483.5
423.843	494.5
424.066	499.5
424.288	523.5
424.511	519.5
424.733	588.5
424.956	653.5
425.178	635.5
425.401	633.5
425.623	660.5
425.846	550.5
426.068	505.5
426.291	515.5
426.513	502.5
426.735	555.5
426.958	565.5
427.18	669.5
427.402	782.5
427.625	865.5
427.847	746.5
428.069	626.5
428.292	592.5
428.514	522.5
428.736	512.5
428.958	521.5
429.181	480.5
429.403	490.5
429.625	488.5
429.847	512.5
430.069	601.5
430.292	595.5
430.514	499.5
430.736	475.5
430.958	470.5
431.18	470.5
431.402	458.5
431.624	435.5
431.846	434.5
432.068	449.5
432.29	459.5
432.512	442.5
432.734	463.5
432.956	472.5
433.178	455.5
433.4	454.5
433.622	459.5
433.844	461.5
434.066	447.5
434.287	450.5
434.509	441.5
434.731	453.5
434.953	468.5
435.175	483.5
435.397	505.5
435.618	513.5
435.84	572.5
436.062	661.5
436.284	743.5
436.505	604.5
436.727	549.5
436.949	488.5
437.17	476.5
437.392	487.5
437.614	495.5
437.835	553.5
438.057	612.5
438.278	729.5
438.5	713.5
438.721	776.5
438.943	784.5
439.165	594.5
439.386	555.5
439.608	552.5
439.829	532.5
440.05	595.5
440.272	625.5
440.493	561.5
440.715	526.5
440.936	514.5
441.158	488.5
441.379	486.5
441.6	503.5
441.822	533.5
442.043	576.5
442.264	643.5
442.486	679.5
442.707	579.5
442.928	557.5
443.149	553.5
443.371	577.5
443.592	617.5
443.813	700.5
444.034	745.5
444.255	627.5
444.476	533.5
444.698	527.5
444.919	520.5
445.14	616.5
445.361	579.5
445.582	555.5
445.803	635.5
446.024	728.5
446.245	737.5
446.466	677.5
446.687	581.5
446.908	530.5
447.129	504.5
447.35	506.5
447.571	502.5
447.792	482.5
448.013	491.5
448.234	503.5
448.455	563.5
448.675	675.5
448.896	768.5
449.117	663.5
449.338	621.5
449.559	729.5
449.779	825.5
450	655.5
450.221	559.5
450.442	487.5
450.662	484.5
450.883	474.5
451.104	512.5
451.324	483.5
451.545	462.5
451.766	439.5
451.986	425.5
452.207	419.5
452.428	427.5
452.648	419.5
452.869	441.5
453.089	445.5
453.31	450.5
453.53	428.5
453.751	422.5
453.971	435.5
454.192	473.5
454.412	443.5
454.633	436.5
454.853	437.5
455.073	424.5
455.294	462.5
455.514	530.5
455.734	509.5
455.955	435.5
456.175	415.5
456.395	424.5
456.616	389.5
456.836	384.5
457.056	392.5
457.276	414.5
457.497	398.5
457.717	422.5
457.937	414.5
458.157	414.5
458.377	414.5
458.598	438.5
458.818	517.5
459.038	605.5
459.258	595.5
459.478	521.5
459.698	464.5
459.918	450.5
460.138	453.5
460.358	450.5
460.578	466.5
460.798	442.5
461.018	447.5
461.238	442.5
461.458	449.5
461.678	427.5
461.898	456.5
462.118	439.5
462.338	455.5
462.558	466.5
462.777	443.5
462.997	446.5
463.217	470.5
463.437	460.5
463.657	464.5
463.876	462.5
464.096	464.5
464.316	457.5
464.536	475.5
464.755	475.5
464.975	512.5
465.195	544.5
465.414	616.5
465.634	541.5
465.854	472.5
466.073	478.5
466.293	441.5
466.512	442.5
466.732	440.5
466.951	419.5
467.171	439.5
467.391	421.5
467.61	457.5
467.829	464.5
468.049	461.5
468.268	430.5
468.488	425.5
468.707	407.5
468.927	427.5
469.146	410.5
469.365	439.5
469.585	445.5
469.804	411.5
470.023	441.5
470.243	444.5
470.462	444.5
470.681	458.5
470.901	455.5
471.12	428.5
471.339	431.5
471.558	447.5
471.777	410.5
471.997	424.5
472.216	448.5
472.435	437.5
472.654	432.5
472.873	429.5
473.092	439.5
473.311	430.5
473.53	458.5
473.749	451.5
473.968	506.5
474.187	588.5
474.406	625.5
474.625	496.5
474.844	462.5
475.063	451.5
475.282	430.5
475.501	455.5
475.72	456.5
475.939	454.5
476.158	451.5
476.377	452.5
476.596	462.5
476.814	467.5
477.033	460.5
477.252	462.5
477.471	474.5
477.69	465.5
477.908	465.5
478.127	480.5
478.346	485.5
478.564	481.5
478.783	466.5
479.002	486.5
479.22	494.5
479.439	521.5
479.658	505.5
479.876	544.5
480.095	526.5
480.313	557.5
480.532	527.5
480.751	539.5
480.969	519.5
481.188	549.5
481.406	573.5
481.624	537.5
481.843	511.5
482.061	525.5
482.28	529.5
482.498	521.5
482.717	528.5
482.935	499.5
483.153	513.5
483.372	512.5
483.59	511.5
483.808	518.5
484.027	503.5
484.245	526.5
484.463	525.5
484.681	534.5
484.9	535.5
485.118	518.5
485.336	525.5
485.554	510.5
485.772	513.5
485.99	541.5
486.209	508.5
486.427	551.5
486.645	557.5
486.863	556.5
487.081	563.5
487.299	555.5
487.517	570.5
487.735	553.5
487.953	536.5
488.171	535.5
488.389	560.5
488.607	547.5
488.825	559.5
489.043	540.5
489.261	560.5
489.479	553.5
489.696	571.5
489.914	555.5
490.132	587.5
490.35	592.5
490.568	568.5
490.786	572.5
491.003	577.5
491.221	601.5
491.439	633.5
491.657	637.5
491.874	614.5
492.092	629.5
492.31	640.5
492.527	622.5
492.745	625.5
492.963	637.5
493.18	669.5
493.398	664.5
493.615	645.5
493.833	653.5
494.05	648.5
494.268	619.5
494.485	641.5
494.703	645.5
494.92	662.5
495.138	658.5
495.355	643.5
495.573	633.5
495.79	639.5
496.008	650.5
496.225	625.5
496.442	636.5
496.66	673.5
496.877	655.5
497.094	640.5
497.312	655.5
497.529	663.5
497.746	673.5
497.963	686.5
498.181	731.5
498.398	727.5
498.615	683.5
498.832	718.5
499.049	735.5
499.267	740.5
499.484	768.5
499.701	791.5
499.918	803.5
500.135	843.5
500.352	849.5
500.569	858.5
500.786	846.5
501.003	853.5
501.22	825.5
501.437	829.5
501.654	802.5
501.871	831.5
502.088	782.5
502.305	739.5
502.522	760.5
502.739	748.5
502.956	713.5
503.172	688.5
503.389	678.5
503.606	702.5
503.823	670.5
504.04	672.5
504.256	661.5
504.473	653.5
504.69	640.5
504.907	663.5
505.123	618.5
505.34	634.5
505.557	653.5
505.773	656.5
505.99	640.5
506.207	625.5
506.423	629.5
506.64	639.5
506.856	622.5
507.073	631.5
507.289	633.5
507.506	617.5
507.722	632.5
507.939	657.5
508.155	638.5
508.372	592.5
508.588	617.5
508.805	598.5
509.021	609.5
509.238	614.5
509.454	620.5
509.67	626.5
509.887	613.5
510.103	599.5
510.319	641.5
510.536	735.5
510.752	1295.5
510.968	1024.5
511.184	627.5
511.401	607.5
511.617	604.5
511.833	581.5
512.049	552.5
512.265	574.5
512.481	574.5
512.698	578.5
512.914	566.5
513.13	575.5
513.346	565.5
513.562	592.5
513.778	604.5
513.994	601.5
514.21	591.5
514.426	637.5
514.642	675.5
514.858	721.5
515.074	742.5
515.29	899.5
515.506	1397.5
515.721	1106.5
515.937	728.5
516.153	669.5
516.369	635.5
516.585	605.5
516.801	589.5
517.016	592.5
517.232	588.5
517.448	594.5
517.664	596.5
517.879	579.5
518.095	589.5
518.311	600.5
518.527	578.5
518.742	599.5
518.958	595.5
519.173	567.5
519.389	580.5
519.605	580.5
519.82	576.5
