Data from 1989.PennyLincolnUp.Lamp.En5.5.200Scan.071819.P2_HRD10591_17-25-52-973.txt Node
Date: Thu Jul 18 17:25:52 EDT 2019
User: cochatt
Spectrometer: HR+D1059
Trigger mode: 1
Integration Time (sec): 1.000000E-1
Scans to average: 1
Electric dark correction enabled: true
Nonlinearity correction enabled: false
Boxcar width: 0
XAxis mode: Wavelengths
Number of Pixels in Spectrum: 2048
>>>>>Begin Spectral Data<<<<<
223.165	1.5
223.4	1.5
223.635	1.5
223.869	-6.5
224.104	-23.5
224.338	-7.5
224.573	-14.5
224.808	-8.5
225.042	-13.5
225.277	-1.5
225.511	-13.5
225.746	-11.5
225.98	4.5
226.215	11.5
226.449	13.5
226.683	14.5
226.918	21.5
227.152	33.5
227.387	31.5
227.621	35.5
227.856	42.5
228.09	39.5
228.324	42.5
228.559	53.5
228.793	71.5
229.027	101.5
229.262	105.5
229.496	108.5
229.73	142.5
229.964	178.5
230.199	127.5
230.433	126.5
230.667	105.5
230.901	117.5
231.136	107.5
231.37	123.5
231.604	111.5
231.838	124.5
232.072	123.5
232.306	124.5
232.541	110.5
232.775	121.5
233.009	119.5
233.243	123.5
233.477	115.5
233.711	126.5
233.945	109.5
234.179	105.5
234.413	118.5
234.647	141.5
234.881	129.5
235.115	119.5
235.349	122.5
235.583	114.5
235.817	125.5
236.051	122.5
236.285	130.5
236.519	125.5
236.753	140.5
236.987	149.5
237.221	183.5
237.455	257.5
237.689	189.5
237.922	138.5
238.156	136.5
238.39	131.5
238.624	142.5
238.858	130.5
239.091	146.5
239.325	130.5
239.559	139.5
239.793	129.5
240.027	143.5
240.26	142.5
240.494	174.5
240.728	162.5
240.961	153.5
241.195	151.5
241.429	157.5
241.662	154.5
241.896	133.5
242.13	147.5
242.363	142.5
242.597	131.5
242.83	141.5
243.064	146.5
243.298	149.5
243.531	130.5
243.765	143.5
243.998	142.5
244.232	149.5
244.465	170.5
244.699	147.5
244.932	137.5
245.166	157.5
245.399	159.5
245.633	147.5
245.866	155.5
246.099	159.5
246.333	170.5
246.566	177.5
246.8	157.5
247.033	168.5
247.266	166.5
247.5	173.5
247.733	183.5
247.966	181.5
248.2	167.5
248.433	195.5
248.666	201.5
248.899	199.5
249.133	228.5
249.366	229.5
249.599	213.5
249.832	211.5
250.066	202.5
250.299	205.5
250.532	211.5
250.765	237.5
250.998	245.5
251.231	250.5
251.465	252.5
251.698	238.5
251.931	232.5
252.164	217.5
252.397	205.5
252.63	229.5
252.863	232.5
253.096	227.5
253.329	261.5
253.562	248.5
253.795	240.5
254.028	245.5
254.261	232.5
254.494	250.5
254.727	279.5
254.96	300.5
255.193	293.5
255.426	275.5
255.659	266.5
255.892	267.5
256.124	281.5
256.357	290.5
256.59	257.5
256.823	252.5
257.056	247.5
257.289	243.5
257.521	237.5
257.754	228.5
257.987	230.5
258.22	246.5
258.452	241.5
258.685	234.5
258.918	232.5
259.151	238.5
259.383	251.5
259.616	241.5
259.849	266.5
260.081	255.5
260.314	274.5
260.547	298.5
260.779	271.5
261.012	258.5
261.244	256.5
261.477	252.5
261.71	241.5
261.942	237.5
262.175	285.5
262.407	254.5
262.64	245.5
262.872	232.5
263.105	250.5
263.337	236.5
263.57	236.5
263.802	230.5
264.035	216.5
264.267	223.5
264.499	227.5
264.732	231.5
264.964	222.5
265.197	247.5
265.429	232.5
265.661	213.5
265.894	252.5
266.126	221.5
266.358	243.5
266.591	232.5
266.823	242.5
267.055	247.5
267.287	260.5
267.52	258.5
267.752	242.5
267.984	242.5
268.216	245.5
268.448	250.5
268.681	245.5
268.913	268.5
269.145	288.5
269.377	300.5
269.609	306.5
269.841	287.5
270.073	303.5
270.306	305.5
270.538	346.5
270.77	349.5
271.002	338.5
271.234	343.5
271.466	324.5
271.698	342.5
271.93	342.5
272.162	349.5
272.394	374.5
272.626	326.5
272.858	312.5
273.09	308.5
273.322	319.5
273.553	321.5
273.785	309.5
274.017	286.5
274.249	289.5
274.481	287.5
274.713	283.5
274.945	308.5
275.176	300.5
275.408	292.5
275.64	290.5
275.872	297.5
276.104	307.5
276.335	283.5
276.567	307.5
276.799	320.5
277.031	330.5
277.262	356.5
277.494	337.5
277.726	329.5
277.957	324.5
278.189	317.5
278.421	291.5
278.652	289.5
278.884	294.5
279.115	285.5
279.347	285.5
279.579	291.5
279.81	279.5
280.042	300.5
280.273	304.5
280.505	288.5
280.736	293.5
280.968	281.5
281.199	294.5
281.431	284.5
281.662	273.5
281.894	296.5
282.125	290.5
282.356	304.5
282.588	337.5
282.819	329.5
283.051	314.5
283.282	278.5
283.513	306.5
283.745	301.5
283.976	298.5
284.207	312.5
284.439	287.5
284.67	293.5
284.901	307.5
285.132	285.5
285.364	295.5
285.595	321.5
285.826	301.5
286.057	294.5
286.288	274.5
286.52	314.5
286.751	300.5
286.982	295.5
287.213	305.5
287.444	325.5
287.675	292.5
287.906	305.5
288.138	325.5
288.369	322.5
288.6	342.5
288.831	339.5
289.062	326.5
289.293	309.5
289.524	312.5
289.755	308.5
289.986	308.5
290.217	296.5
290.448	303.5
290.679	310.5
290.91	307.5
291.141	287.5
291.371	297.5
291.602	296.5
291.833	311.5
292.064	317.5
292.295	306.5
292.526	305.5
292.757	317.5
292.987	326.5
293.218	299.5
293.449	294.5
293.68	310.5
293.91	303.5
294.141	286.5
294.372	307.5
294.603	312.5
294.833	318.5
295.064	311.5
295.295	328.5
295.525	323.5
295.756	334.5
295.987	339.5
296.217	355.5
296.448	351.5
296.679	338.5
296.909	313.5
297.14	298.5
297.37	312.5
297.601	319.5
297.831	290.5
298.062	326.5
298.292	325.5
298.523	326.5
298.753	333.5
298.984	332.5
299.214	334.5
299.445	339.5
299.675	308.5
299.905	349.5
300.136	327.5
300.366	331.5
300.597	340.5
300.827	343.5
301.057	343.5
301.288	353.5
301.518	335.5
301.748	348.5
301.979	345.5
302.209	342.5
302.439	366.5
302.669	342.5
302.9	348.5
303.13	356.5
303.36	357.5
303.59	363.5
303.82	371.5
304.051	355.5
304.281	332.5
304.511	346.5
304.741	346.5
304.971	351.5
305.201	356.5
305.431	344.5
305.661	354.5
305.891	360.5
306.121	349.5
306.352	360.5
306.582	371.5
306.812	349.5
307.042	337.5
307.272	371.5
307.502	339.5
307.731	360.5
307.961	365.5
308.191	355.5
308.421	348.5
308.651	375.5
308.881	356.5
309.111	380.5
309.341	364.5
309.571	374.5
309.8	375.5
310.03	406.5
310.26	410.5
310.49	412.5
310.72	431.5
310.949	437.5
311.179	435.5
311.409	416.5
311.639	379.5
311.868	409.5
312.098	399.5
312.328	422.5
312.557	438.5
312.787	451.5
313.017	434.5
313.246	417.5
313.476	381.5
313.706	403.5
313.935	402.5
314.165	442.5
314.394	455.5
314.624	439.5
314.853	447.5
315.083	417.5
315.312	386.5
315.542	413.5
315.771	401.5
316.001	382.5
316.23	381.5
316.46	389.5
316.689	423.5
316.919	397.5
317.148	428.5
317.377	416.5
317.607	401.5
317.836	402.5
318.065	392.5
318.295	414.5
318.524	402.5
318.753	392.5
318.983	422.5
319.212	390.5
319.441	421.5
319.67	424.5
319.9	410.5
320.129	409.5
320.358	412.5
320.587	409.5
320.816	441.5
321.046	439.5
321.275	427.5
321.504	421.5
321.733	419.5
321.962	444.5
322.191	461.5
322.42	481.5
322.649	494.5
322.878	498.5
323.108	492.5
323.337	546.5
323.566	539.5
323.795	590.5
324.024	676.5
324.253	799.5
324.482	1149.5
324.71	1792.5
324.939	2565.5
325.168	2190.5
325.397	1147.5
325.626	771.5
325.855	635.5
326.084	583.5
326.313	563.5
326.542	563.5
326.77	629.5
326.999	741.5
327.228	1038.5
327.457	1582.5
327.686	1932.5
327.914	1288.5
328.143	835.5
328.372	729.5
328.6	661.5
328.829	643.5
329.058	648.5
329.287	675.5
329.515	630.5
329.744	576.5
329.972	587.5
330.201	613.5
330.43	681.5
330.658	699.5
330.887	721.5
331.115	671.5
331.344	600.5
331.572	545.5
331.801	539.5
332.03	558.5
332.258	527.5
332.486	504.5
332.715	477.5
332.943	525.5
333.172	495.5
333.4	486.5
333.629	499.5
333.857	542.5
334.085	552.5
334.314	577.5
334.542	634.5
334.771	658.5
334.999	603.5
335.227	536.5
335.455	487.5
335.684	496.5
335.912	492.5
336.14	465.5
336.369	458.5
336.597	465.5
336.825	492.5
337.053	482.5
337.281	459.5
337.51	465.5
337.738	478.5
337.966	444.5
338.194	462.5
338.422	464.5
338.65	457.5
338.878	442.5
339.106	428.5
339.334	459.5
339.562	450.5
339.79	466.5
340.018	437.5
340.246	448.5
340.474	444.5
340.702	476.5
340.93	454.5
341.158	462.5
341.386	460.5
341.614	484.5
341.842	470.5
342.07	434.5
342.298	438.5
342.526	433.5
342.754	433.5
342.981	410.5
343.209	438.5
343.437	450.5
343.665	435.5
343.893	442.5
344.12	443.5
344.348	463.5
344.576	447.5
344.804	467.5
345.031	457.5
345.259	455.5
345.487	463.5
345.714	456.5
345.942	441.5
346.17	436.5
346.397	438.5
346.625	444.5
346.853	437.5
347.08	428.5
347.308	454.5
347.535	459.5
347.763	456.5
347.99	459.5
348.218	465.5
348.445	460.5
348.673	442.5
348.9	431.5
349.128	434.5
349.355	433.5
349.583	422.5
349.81	409.5
350.037	415.5
350.265	414.5
350.492	428.5
350.72	414.5
350.947	435.5
351.174	455.5
351.402	445.5
351.629	438.5
351.856	442.5
352.083	459.5
352.311	451.5
352.538	451.5
352.765	449.5
352.992	449.5
353.22	460.5
353.447	427.5
353.674	413.5
353.901	421.5
354.128	396.5
354.355	409.5
354.583	411.5
354.81	413.5
355.037	401.5
355.264	425.5
355.491	391.5
355.718	400.5
355.945	394.5
356.172	409.5
356.399	373.5
356.626	393.5
356.853	391.5
357.08	398.5
357.307	398.5
357.534	418.5
357.761	387.5
357.988	396.5
358.215	412.5
358.441	375.5
358.668	403.5
358.895	412.5
359.122	399.5
359.349	414.5
359.576	437.5
359.802	464.5
360.029	485.5
360.256	512.5
360.483	478.5
360.709	435.5
360.936	430.5
361.163	432.5
361.39	422.5
361.616	436.5
361.843	431.5
362.07	422.5
362.296	427.5
362.523	428.5
362.749	443.5
362.976	425.5
363.203	421.5
363.429	403.5
363.656	414.5
363.882	401.5
364.109	397.5
364.335	393.5
364.562	390.5
364.788	412.5
365.015	393.5
365.241	393.5
365.468	397.5
365.694	408.5
365.92	403.5
366.147	386.5
366.373	416.5
366.599	396.5
366.826	404.5
367.052	394.5
367.278	407.5
367.505	406.5
367.731	390.5
367.957	376.5
368.184	395.5
368.41	412.5
368.636	431.5
368.862	419.5
369.089	430.5
369.315	415.5
369.541	401.5
369.767	411.5
369.993	409.5
370.219	409.5
370.445	385.5
370.672	403.5
370.898	391.5
371.124	399.5
371.35	408.5
371.576	395.5
371.802	389.5
372.028	371.5
372.254	365.5
372.48	392.5
372.706	393.5
372.932	390.5
373.158	393.5
373.384	389.5
373.61	405.5
373.835	391.5
374.061	369.5
374.287	407.5
374.513	391.5
374.739	390.5
374.965	408.5
375.191	404.5
375.416	390.5
375.642	391.5
375.868	399.5
376.094	388.5
376.319	400.5
376.545	397.5
376.771	413.5
376.997	414.5
377.222	384.5
377.448	381.5
377.674	405.5
377.899	390.5
378.125	363.5
378.35	377.5
378.576	386.5
378.802	382.5
379.027	381.5
379.253	385.5
379.478	349.5
379.704	389.5
379.929	386.5
380.155	396.5
380.38	393.5
380.606	387.5
380.831	385.5
381.057	402.5
381.282	407.5
381.507	386.5
381.733	393.5
381.958	401.5
382.184	393.5
382.409	389.5
382.634	383.5
382.86	382.5
383.085	402.5
383.31	379.5
383.535	382.5
383.761	394.5
383.986	376.5
384.211	395.5
384.436	395.5
384.662	407.5
384.887	423.5
385.112	398.5
385.337	398.5
385.562	402.5
385.787	411.5
386.013	428.5
386.238	437.5
386.463	409.5
386.688	418.5
386.913	405.5
387.138	405.5
387.363	426.5
387.588	413.5
387.813	438.5
388.038	416.5
388.263	406.5
388.488	406.5
388.713	399.5
388.938	435.5
389.163	414.5
389.387	438.5
389.612	406.5
389.837	411.5
390.062	423.5
390.287	397.5
390.512	416.5
390.736	410.5
390.961	407.5
391.186	389.5
391.411	418.5
391.636	417.5
391.86	427.5
392.085	417.5
392.31	402.5
392.534	427.5
392.759	438.5
392.984	424.5
393.208	417.5
393.433	420.5
393.658	411.5
393.882	403.5
394.107	408.5
394.331	396.5
394.556	409.5
394.78	411.5
395.005	415.5
395.229	421.5
395.454	426.5
395.678	426.5
395.903	451.5
396.127	467.5
396.352	437.5
396.576	426.5
396.801	417.5
397.025	409.5
397.249	418.5
397.474	430.5
397.698	414.5
397.922	430.5
398.147	453.5
398.371	456.5
398.595	444.5
398.82	451.5
399.044	451.5
399.268	467.5
399.492	466.5
399.717	498.5
399.941	523.5
400.165	561.5
400.389	570.5
400.613	522.5
400.837	497.5
401.062	475.5
401.286	461.5
401.51	476.5
401.734	469.5
401.958	481.5
402.182	457.5
402.406	464.5
402.63	472.5
402.854	477.5
403.078	462.5
403.302	473.5
403.526	475.5
403.75	486.5
403.974	473.5
404.198	466.5
404.422	483.5
404.645	478.5
404.869	506.5
405.093	533.5
405.317	579.5
405.541	609.5
405.765	553.5
405.988	525.5
406.212	520.5
406.436	537.5
406.66	573.5
406.883	538.5
407.107	533.5
407.331	562.5
407.555	634.5
407.778	654.5
408.002	598.5
408.226	545.5
408.449	535.5
408.673	518.5
408.896	564.5
409.12	619.5
409.344	563.5
409.567	512.5
409.791	503.5
410.014	486.5
410.238	469.5
410.461	489.5
410.685	486.5
410.908	505.5
411.132	551.5
411.355	586.5
411.578	548.5
411.802	505.5
412.025	482.5
412.249	510.5
412.472	534.5
412.695	567.5
412.919	577.5
413.142	505.5
413.365	519.5
413.589	490.5
413.812	463.5
414.035	467.5
414.258	436.5
414.482	449.5
414.705	460.5
414.928	447.5
415.151	456.5
415.374	444.5
415.597	440.5
415.821	435.5
416.044	441.5
416.267	470.5
416.49	469.5
416.713	441.5
416.936	463.5
417.159	455.5
417.382	475.5
417.605	457.5
417.828	486.5
418.051	494.5
418.274	474.5
418.497	451.5
418.72	466.5
418.943	454.5
419.166	467.5
419.389	474.5
419.611	490.5
419.834	479.5
420.057	492.5
420.28	505.5
420.503	500.5
420.726	485.5
420.948	511.5
421.171	517.5
421.394	565.5
421.617	513.5
421.839	480.5
422.062	490.5
422.285	510.5
422.507	567.5
422.73	621.5
422.953	603.5
423.175	503.5
423.398	494.5
423.621	491.5
423.843	531.5
424.066	518.5
424.288	511.5
424.511	534.5
424.733	596.5
424.956	662.5
425.178	661.5
425.401	631.5
425.623	670.5
425.846	573.5
426.068	518.5
426.291	519.5
426.513	520.5
426.735	539.5
426.958	573.5
427.18	645.5
427.402	798.5
427.625	853.5
427.847	771.5
428.069	663.5
428.292	570.5
428.514	513.5
428.736	511.5
428.958	515.5
429.181	509.5
429.403	475.5
429.625	502.5
429.847	505.5
430.069	580.5
430.292	599.5
430.514	503.5
430.736	488.5
430.958	460.5
431.18	453.5
431.402	458.5
431.624	462.5
431.846	436.5
432.068	434.5
432.29	449.5
432.512	429.5
432.734	448.5
432.956	458.5
433.178	468.5
433.4	487.5
433.622	469.5
433.844	456.5
434.066	440.5
434.287	442.5
434.509	449.5
434.731	445.5
434.953	465.5
435.175	485.5
435.397	491.5
435.618	515.5
435.84	551.5
436.062	654.5
436.284	715.5
436.505	620.5
436.727	545.5
436.949	500.5
437.17	503.5
437.392	481.5
437.614	516.5
437.835	535.5
438.057	614.5
438.278	735.5
438.5	738.5
438.721	794.5
438.943	772.5
439.165	621.5
439.386	563.5
439.608	531.5
439.829	556.5
440.05	591.5
440.272	619.5
440.493	564.5
440.715	527.5
440.936	516.5
441.158	469.5
441.379	483.5
441.6	488.5
441.822	511.5
442.043	555.5
442.264	661.5
442.486	673.5
442.707	607.5
442.928	525.5
443.149	561.5
443.371	573.5
443.592	603.5
443.813	691.5
444.034	755.5
444.255	613.5
444.476	551.5
444.698	511.5
444.919	509.5
445.14	647.5
445.361	594.5
445.582	579.5
445.803	641.5
446.024	722.5
446.245	734.5
446.466	700.5
446.687	588.5
446.908	519.5
447.129	503.5
447.35	474.5
447.571	482.5
447.792	477.5
448.013	506.5
448.234	523.5
448.455	555.5
448.675	665.5
448.896	803.5
449.117	678.5
449.338	634.5
449.559	718.5
449.779	838.5
450	654.5
450.221	543.5
450.442	513.5
450.662	501.5
450.883	506.5
451.104	494.5
451.324	470.5
451.545	475.5
451.766	423.5
451.986	433.5
452.207	419.5
452.428	421.5
452.648	409.5
452.869	422.5
453.089	443.5
453.31	464.5
453.53	453.5
453.751	419.5
453.971	423.5
454.192	466.5
454.412	451.5
454.633	411.5
454.853	428.5
455.073	422.5
455.294	466.5
455.514	521.5
455.734	543.5
455.955	431.5
456.175	394.5
456.395	407.5
456.616	379.5
456.836	380.5
457.056	394.5
457.276	376.5
457.497	404.5
457.717	396.5
457.937	425.5
458.157	414.5
458.377	430.5
458.598	442.5
458.818	504.5
459.038	591.5
459.258	635.5
459.478	531.5
459.698	463.5
459.918	431.5
460.138	451.5
460.358	446.5
460.578	434.5
460.798	460.5
461.018	446.5
461.238	435.5
461.458	441.5
461.678	426.5
461.898	451.5
462.118	460.5
462.338	457.5
462.558	468.5
462.777	452.5
462.997	450.5
463.217	461.5
463.437	492.5
463.657	457.5
463.876	452.5
464.096	455.5
464.316	465.5
464.536	478.5
464.755	475.5
464.975	444.5
465.195	515.5
465.414	627.5
465.634	546.5
465.854	491.5
466.073	464.5
466.293	451.5
466.512	442.5
466.732	435.5
466.951	413.5
467.171	409.5
467.391	463.5
467.61	453.5
467.829	447.5
468.049	470.5
468.268	459.5
468.488	457.5
468.707	415.5
468.927	423.5
469.146	404.5
469.365	416.5
469.585	427.5
469.804	440.5
470.023	440.5
470.243	417.5
470.462	453.5
470.681	478.5
470.901	453.5
471.12	450.5
471.339	434.5
471.558	462.5
471.777	455.5
471.997	422.5
472.216	455.5
472.435	503.5
472.654	469.5
472.873	453.5
473.092	446.5
473.311	433.5
473.53	452.5
473.749	474.5
473.968	490.5
474.187	612.5
474.406	642.5
474.625	510.5
474.844	474.5
475.063	459.5
475.282	441.5
475.501	446.5
475.72	448.5
475.939	454.5
476.158	461.5
476.377	438.5
476.596	454.5
476.814	470.5
477.033	459.5
477.252	485.5
477.471	463.5
477.69	458.5
477.908	470.5
478.127	462.5
478.346	477.5
478.564	492.5
478.783	493.5
479.002	499.5
479.22	499.5
479.439	502.5
479.658	525.5
479.876	551.5
480.095	538.5
480.313	572.5
480.532	547.5
480.751	551.5
480.969	552.5
481.188	651.5
481.406	732.5
481.624	608.5
481.843	565.5
482.061	564.5
482.28	535.5
482.498	532.5
482.717	523.5
482.935	525.5
483.153	533.5
483.372	517.5
483.59	523.5
483.808	519.5
484.027	520.5
484.245	518.5
484.463	516.5
484.681	566.5
484.9	536.5
485.118	522.5
485.336	529.5
485.554	531.5
485.772	537.5
485.99	537.5
486.209	530.5
486.427	549.5
486.645	555.5
486.863	547.5
487.081	565.5
487.299	564.5
487.517	555.5
487.735	563.5
487.953	577.5
488.171	554.5
488.389	543.5
488.607	569.5
488.825	555.5
489.043	547.5
489.261	554.5
489.479	583.5
489.696	540.5
489.914	572.5
490.132	569.5
490.35	575.5
490.568	592.5
490.786	605.5
491.003	610.5
491.221	609.5
491.439	609.5
491.657	630.5
491.874	645.5
492.092	665.5
492.31	661.5
492.527	662.5
492.745	655.5
492.963	683.5
493.18	661.5
493.398	674.5
493.615	681.5
493.833	695.5
494.05	697.5
494.268	690.5
494.485	673.5
494.703	661.5
494.92	667.5
495.138	661.5
495.355	667.5
495.573	677.5
495.79	675.5
496.008	685.5
496.225	672.5
496.442	653.5
496.66	663.5
496.877	667.5
497.094	671.5
497.312	685.5
497.529	676.5
497.746	718.5
497.963	679.5
498.181	723.5
498.398	719.5
498.615	713.5
498.832	729.5
499.049	728.5
499.267	720.5
499.484	760.5
499.701	799.5
499.918	789.5
500.135	824.5
500.352	835.5
500.569	859.5
500.786	871.5
501.003	883.5
501.22	831.5
501.437	815.5
501.654	813.5
501.871	817.5
502.088	787.5
502.305	770.5
502.522	726.5
502.739	724.5
502.956	708.5
503.172	711.5
503.389	690.5
503.606	686.5
503.823	693.5
504.04	661.5
504.256	669.5
504.473	655.5
504.69	664.5
504.907	650.5
505.123	637.5
505.34	641.5
505.557	620.5
505.773	627.5
505.99	641.5
506.207	671.5
506.423	630.5
506.64	644.5
506.856	625.5
507.073	650.5
507.289	635.5
507.506	626.5
507.722	629.5
507.939	655.5
508.155	631.5
508.372	622.5
508.588	595.5
508.805	622.5
509.021	596.5
509.238	601.5
509.454	621.5
509.67	634.5
509.887	607.5
510.103	618.5
510.319	653.5
510.536	737.5
510.752	1249.5
510.968	998.5
511.184	669.5
511.401	606.5
511.617	591.5
511.833	598.5
512.049	588.5
512.265	586.5
512.481	585.5
512.698	583.5
512.914	591.5
513.13	594.5
513.346	567.5
513.562	576.5
513.778	581.5
513.994	586.5
514.21	606.5
514.426	614.5
514.642	675.5
514.858	692.5
515.074	753.5
515.29	905.5
515.506	1357.5
515.721	1108.5
515.937	732.5
516.153	693.5
516.369	615.5
516.585	627.5
516.801	607.5
517.016	602.5
517.232	602.5
517.448	589.5
517.664	589.5
517.879	628.5
518.095	579.5
518.311	572.5
518.527	601.5
518.742	588.5
518.958	559.5
519.173	588.5
519.389	576.5
519.605	605.5
519.82	571.5
