Data from 1989.PennyLincolnUp.Lamp.En5.5.200Scan.071819.P2_HRD10591_17-24-38-973.txt Node
Date: Thu Jul 18 17:24:38 EDT 2019
User: cochatt
Spectrometer: HR+D1059
Trigger mode: 1
Integration Time (sec): 1.000000E-1
Scans to average: 1
Electric dark correction enabled: true
Nonlinearity correction enabled: false
Boxcar width: 0
XAxis mode: Wavelengths
Number of Pixels in Spectrum: 2048
>>>>>Begin Spectral Data<<<<<
223.165	3.5
223.4	3.5
223.635	3.5
223.869	-13.5
224.104	-7.5
224.338	-8.5
224.573	-17.5
224.808	-12.5
225.042	-2.5
225.277	-0.5
225.511	-1.5
225.746	1.5
225.98	0.5
226.215	0.5
226.449	10.5
226.683	18.5
226.918	18.5
227.152	10.5
227.387	34.5
227.621	40.5
227.856	49.5
228.09	49.5
228.324	58.5
228.559	68.5
228.793	74.5
229.027	94.5
229.262	117.5
229.496	102.5
229.73	154.5
229.964	150.5
230.199	138.5
230.433	113.5
230.667	108.5
230.901	123.5
231.136	116.5
231.37	113.5
231.604	117.5
231.838	112.5
232.072	113.5
232.306	120.5
232.541	107.5
232.775	112.5
233.009	118.5
233.243	115.5
233.477	126.5
233.711	99.5
233.945	119.5
234.179	115.5
234.413	111.5
234.647	122.5
234.881	138.5
235.115	112.5
235.349	118.5
235.583	118.5
235.817	114.5
236.051	128.5
236.285	122.5
236.519	130.5
236.753	124.5
236.987	152.5
237.221	188.5
237.455	235.5
237.689	182.5
237.922	161.5
238.156	143.5
238.39	126.5
238.624	122.5
238.858	125.5
239.091	139.5
239.325	117.5
239.559	120.5
239.793	131.5
240.027	126.5
240.26	146.5
240.494	159.5
240.728	154.5
240.961	141.5
241.195	141.5
241.429	131.5
241.662	135.5
241.896	128.5
242.13	129.5
242.363	145.5
242.597	139.5
242.83	127.5
243.064	123.5
243.298	130.5
243.531	148.5
243.765	148.5
243.998	144.5
244.232	140.5
244.465	151.5
244.699	139.5
244.932	162.5
245.166	148.5
245.399	150.5
245.633	166.5
245.866	152.5
246.099	143.5
246.333	151.5
246.566	137.5
246.8	167.5
247.033	166.5
247.266	163.5
247.5	175.5
247.733	177.5
247.966	163.5
248.2	186.5
248.433	180.5
248.666	185.5
248.899	187.5
249.133	198.5
249.366	210.5
249.599	213.5
249.832	200.5
250.066	198.5
250.299	194.5
250.532	182.5
250.765	191.5
250.998	214.5
251.231	251.5
251.465	226.5
251.698	227.5
251.931	214.5
252.164	224.5
252.397	210.5
252.63	222.5
252.863	211.5
253.096	242.5
253.329	257.5
253.562	240.5
253.795	224.5
254.028	225.5
254.261	224.5
254.494	248.5
254.727	277.5
254.96	303.5
255.193	285.5
255.426	266.5
255.659	231.5
255.892	255.5
256.124	244.5
256.357	236.5
256.59	221.5
256.823	219.5
257.056	214.5
257.289	226.5
257.521	218.5
257.754	244.5
257.987	225.5
258.22	229.5
258.452	216.5
258.685	222.5
258.918	230.5
259.151	225.5
259.383	228.5
259.616	231.5
259.849	235.5
260.081	253.5
260.314	262.5
260.547	267.5
260.779	276.5
261.012	243.5
261.244	230.5
261.477	238.5
261.71	242.5
261.942	233.5
262.175	275.5
262.407	263.5
262.64	233.5
262.872	238.5
263.105	226.5
263.337	245.5
263.57	218.5
263.802	217.5
264.035	243.5
264.267	223.5
264.499	229.5
264.732	221.5
264.964	231.5
265.197	226.5
265.429	213.5
265.661	225.5
265.894	232.5
266.126	226.5
266.358	227.5
266.591	246.5
266.823	226.5
267.055	246.5
267.287	234.5
267.52	242.5
267.752	246.5
267.984	242.5
268.216	229.5
268.448	240.5
268.681	268.5
268.913	256.5
269.145	287.5
269.377	282.5
269.609	306.5
269.841	297.5
270.073	324.5
270.306	311.5
270.538	341.5
270.77	350.5
271.002	314.5
271.234	320.5
271.466	317.5
271.698	346.5
271.93	329.5
272.162	354.5
272.394	337.5
272.626	318.5
272.858	303.5
273.09	316.5
273.322	296.5
273.553	290.5
273.785	294.5
274.017	296.5
274.249	274.5
274.481	267.5
274.713	281.5
274.945	304.5
275.176	272.5
275.408	287.5
275.64	265.5
275.872	273.5
276.104	281.5
276.335	271.5
276.567	271.5
276.799	293.5
277.031	332.5
277.262	338.5
277.494	361.5
277.726	327.5
277.957	327.5
278.189	289.5
278.421	283.5
278.652	303.5
278.884	280.5
279.115	267.5
279.347	273.5
279.579	273.5
279.81	295.5
280.042	285.5
280.273	290.5
280.505	276.5
280.736	276.5
280.968	274.5
281.199	274.5
281.431	289.5
281.662	294.5
281.894	285.5
282.125	290.5
282.356	307.5
282.588	322.5
282.819	330.5
283.051	282.5
283.282	287.5
283.513	304.5
283.745	282.5
283.976	301.5
284.207	305.5
284.439	288.5
284.67	276.5
284.901	296.5
285.132	292.5
285.364	280.5
285.595	285.5
285.826	279.5
286.057	293.5
286.288	300.5
286.52	292.5
286.751	293.5
286.982	289.5
287.213	294.5
287.444	303.5
287.675	314.5
287.906	301.5
288.138	335.5
288.369	329.5
288.6	313.5
288.831	306.5
289.062	304.5
289.293	314.5
289.524	294.5
289.755	305.5
289.986	314.5
290.217	294.5
290.448	293.5
290.679	294.5
290.91	318.5
291.141	307.5
291.371	282.5
291.602	309.5
291.833	291.5
292.064	311.5
292.295	313.5
292.526	290.5
292.757	302.5
292.987	291.5
293.218	291.5
293.449	296.5
293.68	319.5
293.91	326.5
294.141	302.5
294.372	296.5
294.603	300.5
294.833	293.5
295.064	303.5
295.295	304.5
295.525	309.5
295.756	317.5
295.987	311.5
296.217	309.5
296.448	347.5
296.679	335.5
296.909	297.5
297.14	306.5
297.37	319.5
297.601	313.5
297.831	299.5
298.062	313.5
298.292	310.5
298.523	325.5
298.753	317.5
298.984	296.5
299.214	296.5
299.445	304.5
299.675	303.5
299.905	329.5
300.136	322.5
300.366	321.5
300.597	325.5
300.827	341.5
301.057	329.5
301.288	352.5
301.518	343.5
301.748	343.5
301.979	354.5
302.209	350.5
302.439	330.5
302.669	337.5
302.9	346.5
303.13	331.5
303.36	357.5
303.59	334.5
303.82	340.5
304.051	345.5
304.281	335.5
304.511	331.5
304.741	332.5
304.971	341.5
305.201	323.5
305.431	327.5
305.661	353.5
305.891	334.5
306.121	340.5
306.352	341.5
306.582	335.5
306.812	350.5
307.042	327.5
307.272	326.5
307.502	346.5
307.731	335.5
307.961	335.5
308.191	337.5
308.421	356.5
308.651	343.5
308.881	362.5
309.111	349.5
309.341	346.5
309.571	365.5
309.8	383.5
310.03	373.5
310.26	389.5
310.49	388.5
310.72	403.5
310.949	424.5
311.179	417.5
311.409	411.5
311.639	415.5
311.868	389.5
312.098	401.5
312.328	391.5
312.557	415.5
312.787	436.5
313.017	428.5
313.246	411.5
313.476	382.5
313.706	404.5
313.935	403.5
314.165	411.5
314.394	405.5
314.624	411.5
314.853	430.5
315.083	421.5
315.312	392.5
315.542	385.5
315.771	409.5
316.001	402.5
316.23	391.5
316.46	388.5
316.689	405.5
316.919	399.5
317.148	377.5
317.377	418.5
317.607	402.5
317.836	397.5
318.065	395.5
318.295	380.5
318.524	383.5
318.753	402.5
318.983	389.5
319.212	390.5
319.441	406.5
319.67	417.5
319.9	401.5
320.129	400.5
320.358	419.5
320.587	404.5
320.816	407.5
321.046	416.5
321.275	415.5
321.504	433.5
321.733	434.5
321.962	429.5
322.191	450.5
322.42	453.5
322.649	497.5
322.878	476.5
323.108	490.5
323.337	533.5
323.566	539.5
323.795	587.5
324.024	621.5
324.253	744.5
324.482	1125.5
324.71	1754.5
324.939	2474.5
325.168	2145.5
325.397	1107.5
325.626	755.5
325.855	611.5
326.084	563.5
326.313	526.5
326.542	544.5
326.77	608.5
326.999	690.5
327.228	992.5
327.457	1522.5
327.686	1854.5
327.914	1232.5
328.143	792.5
328.372	682.5
328.6	628.5
328.829	625.5
329.058	637.5
329.287	632.5
329.515	593.5
329.744	542.5
329.972	535.5
330.201	553.5
330.43	560.5
330.658	599.5
330.887	645.5
331.115	630.5
331.344	539.5
331.572	488.5
331.801	514.5
332.03	506.5
332.258	471.5
332.486	462.5
332.715	447.5
332.943	442.5
333.172	455.5
333.4	477.5
333.629	473.5
333.857	488.5
334.085	486.5
334.314	485.5
334.542	495.5
334.771	496.5
334.999	484.5
335.227	466.5
335.455	468.5
335.684	457.5
335.912	461.5
336.14	447.5
336.369	469.5
336.597	462.5
336.825	454.5
337.053	451.5
337.281	452.5
337.51	447.5
337.738	454.5
337.966	430.5
338.194	474.5
338.422	460.5
338.65	438.5
338.878	424.5
339.106	439.5
339.334	423.5
339.562	439.5
339.79	422.5
340.018	438.5
340.246	427.5
340.474	463.5
340.702	457.5
340.93	441.5
341.158	426.5
341.386	435.5
341.614	449.5
341.842	440.5
342.07	446.5
342.298	441.5
342.526	420.5
342.754	435.5
342.981	415.5
343.209	426.5
343.437	451.5
343.665	433.5
343.893	436.5
344.12	439.5
344.348	439.5
344.576	436.5
344.804	454.5
345.031	441.5
345.259	448.5
345.487	474.5
345.714	449.5
345.942	442.5
346.17	417.5
346.397	424.5
346.625	406.5
346.853	432.5
347.08	435.5
347.308	422.5
347.535	438.5
347.763	439.5
347.99	410.5
348.218	448.5
348.445	442.5
348.673	454.5
348.9	436.5
349.128	420.5
349.355	401.5
349.583	417.5
349.81	409.5
350.037	411.5
350.265	409.5
350.492	387.5
350.72	423.5
350.947	414.5
351.174	420.5
351.402	406.5
351.629	433.5
351.856	434.5
352.083	436.5
352.311	430.5
352.538	447.5
352.765	447.5
352.992	431.5
353.22	438.5
353.447	424.5
353.674	406.5
353.901	400.5
354.128	389.5
354.355	394.5
354.583	388.5
354.81	369.5
355.037	399.5
355.264	397.5
355.491	370.5
355.718	383.5
355.945	387.5
356.172	377.5
356.399	376.5
356.626	378.5
356.853	379.5
357.08	399.5
357.307	401.5
357.534	375.5
357.761	391.5
357.988	370.5
358.215	394.5
358.441	399.5
358.668	383.5
358.895	392.5
359.122	392.5
359.349	381.5
359.576	405.5
359.802	467.5
360.029	443.5
360.256	486.5
360.483	470.5
360.709	427.5
360.936	435.5
361.163	412.5
361.39	443.5
361.616	416.5
361.843	417.5
362.07	409.5
362.296	426.5
362.523	443.5
362.749	416.5
362.976	411.5
363.203	409.5
363.429	392.5
363.656	409.5
363.882	409.5
364.109	388.5
364.335	400.5
364.562	411.5
364.788	375.5
365.015	391.5
365.241	396.5
365.468	409.5
365.694	391.5
365.92	390.5
366.147	420.5
366.373	393.5
366.599	389.5
366.826	394.5
367.052	400.5
367.278	388.5
367.505	403.5
367.731	381.5
367.957	407.5
368.184	399.5
368.41	390.5
368.636	402.5
368.862	407.5
369.089	387.5
369.315	392.5
369.541	375.5
369.767	366.5
369.993	409.5
370.219	374.5
370.445	366.5
370.672	391.5
370.898	369.5
371.124	388.5
371.35	386.5
371.576	383.5
371.802	394.5
372.028	386.5
372.254	386.5
372.48	388.5
372.706	386.5
372.932	379.5
373.158	375.5
373.384	377.5
373.61	387.5
373.835	370.5
374.061	385.5
374.287	366.5
374.513	396.5
374.739	383.5
374.965	387.5
375.191	398.5
375.416	401.5
375.642	375.5
375.868	393.5
376.094	389.5
376.319	386.5
376.545	395.5
376.771	366.5
376.997	359.5
377.222	360.5
377.448	382.5
377.674	371.5
377.899	379.5
378.125	386.5
378.35	381.5
378.576	373.5
378.802	346.5
379.027	381.5
379.253	389.5
379.478	385.5
379.704	366.5
379.929	382.5
380.155	379.5
380.38	358.5
380.606	382.5
380.831	365.5
381.057	373.5
381.282	372.5
381.507	376.5
381.733	387.5
381.958	389.5
382.184	358.5
382.409	383.5
382.634	389.5
382.86	381.5
383.085	387.5
383.31	381.5
383.535	381.5
383.761	388.5
383.986	409.5
384.211	387.5
384.436	395.5
384.662	408.5
384.887	389.5
385.112	391.5
385.337	402.5
385.562	390.5
385.787	389.5
386.013	394.5
386.238	397.5
386.463	425.5
386.688	416.5
386.913	392.5
387.138	413.5
387.363	400.5
387.588	392.5
387.813	388.5
388.038	398.5
388.263	408.5
388.488	391.5
388.713	386.5
388.938	417.5
389.163	400.5
389.387	401.5
389.612	382.5
389.837	395.5
390.062	396.5
390.287	388.5
390.512	399.5
390.736	401.5
390.961	404.5
391.186	420.5
391.411	400.5
391.636	400.5
391.86	425.5
392.085	403.5
392.31	414.5
392.534	410.5
392.759	407.5
392.984	396.5
393.208	390.5
393.433	408.5
393.658	402.5
393.882	404.5
394.107	401.5
394.331	393.5
394.556	394.5
394.78	415.5
395.005	397.5
395.229	397.5
395.454	437.5
395.678	426.5
395.903	415.5
396.127	433.5
396.352	430.5
396.576	417.5
396.801	412.5
397.025	407.5
397.249	424.5
397.474	426.5
397.698	419.5
397.922	425.5
398.147	442.5
398.371	462.5
398.595	451.5
398.82	444.5
399.044	439.5
399.268	471.5
399.492	486.5
399.717	507.5
399.941	544.5
400.165	560.5
400.389	561.5
400.613	508.5
400.837	467.5
401.062	471.5
401.286	453.5
401.51	466.5
401.734	455.5
401.958	460.5
402.182	432.5
402.406	453.5
402.63	472.5
402.854	456.5
403.078	462.5
403.302	466.5
403.526	458.5
403.75	457.5
403.974	448.5
404.198	458.5
404.422	465.5
404.645	486.5
404.869	483.5
405.093	483.5
405.317	538.5
405.541	560.5
405.765	514.5
405.988	487.5
406.212	493.5
406.436	523.5
406.66	540.5
406.883	529.5
407.107	542.5
407.331	570.5
407.555	665.5
407.778	643.5
408.002	574.5
408.226	552.5
408.449	529.5
408.673	519.5
408.896	546.5
409.12	582.5
409.344	538.5
409.567	514.5
409.791	512.5
410.014	456.5
410.238	462.5
410.461	457.5
410.685	479.5
410.908	503.5
411.132	521.5
411.355	566.5
411.578	528.5
411.802	481.5
412.025	458.5
412.249	465.5
412.472	457.5
412.695	500.5
412.919	489.5
413.142	438.5
413.365	442.5
413.589	442.5
413.812	444.5
414.035	441.5
414.258	416.5
414.482	433.5
414.705	435.5
414.928	433.5
415.151	421.5
415.374	443.5
415.597	430.5
415.821	418.5
416.044	445.5
416.267	450.5
416.49	439.5
416.713	439.5
416.936	425.5
417.159	439.5
417.382	450.5
417.605	448.5
417.828	467.5
418.051	467.5
418.274	454.5
418.497	434.5
418.72	451.5
418.943	453.5
419.166	450.5
419.389	468.5
419.611	481.5
419.834	450.5
420.057	456.5
420.28	443.5
420.503	447.5
420.726	455.5
420.948	475.5
421.171	537.5
421.394	553.5
421.617	500.5
421.839	463.5
422.062	456.5
422.285	473.5
422.507	535.5
422.73	612.5
422.953	583.5
423.175	504.5
423.398	485.5
423.621	481.5
423.843	509.5
424.066	487.5
424.288	522.5
424.511	536.5
424.733	561.5
424.956	654.5
425.178	622.5
425.401	649.5
425.623	648.5
425.846	549.5
426.068	529.5
426.291	495.5
426.513	507.5
426.735	529.5
426.958	585.5
427.18	652.5
427.402	785.5
427.625	882.5
427.847	763.5
428.069	635.5
428.292	585.5
428.514	521.5
428.736	498.5
428.958	499.5
429.181	453.5
429.403	477.5
429.625	464.5
429.847	493.5
430.069	568.5
430.292	569.5
430.514	479.5
430.736	447.5
430.958	477.5
431.18	441.5
431.402	439.5
431.624	456.5
431.846	449.5
432.068	431.5
432.29	464.5
432.512	424.5
432.734	450.5
432.956	435.5
433.178	460.5
433.4	481.5
433.622	437.5
433.844	422.5
434.066	443.5
434.287	428.5
434.509	441.5
434.731	440.5
434.953	455.5
435.175	481.5
435.397	518.5
435.618	509.5
435.84	548.5
436.062	657.5
436.284	715.5
436.505	602.5
436.727	496.5
436.949	493.5
437.17	480.5
437.392	482.5
437.614	489.5
437.835	528.5
438.057	633.5
438.278	705.5
438.5	726.5
438.721	775.5
438.943	767.5
439.165	580.5
439.386	528.5
439.608	567.5
439.829	515.5
440.05	547.5
440.272	593.5
440.493	553.5
440.715	505.5
440.936	497.5
441.158	473.5
441.379	466.5
441.6	478.5
441.822	494.5
442.043	543.5
442.264	611.5
442.486	687.5
442.707	580.5
442.928	524.5
443.149	526.5
443.371	560.5
443.592	586.5
443.813	656.5
444.034	759.5
444.255	621.5
444.476	539.5
444.698	494.5
444.919	526.5
445.14	600.5
445.361	563.5
445.582	567.5
445.803	633.5
446.024	747.5
446.245	751.5
446.466	657.5
446.687	555.5
446.908	531.5
447.129	495.5
447.35	485.5
447.571	449.5
447.792	481.5
448.013	468.5
448.234	512.5
448.455	567.5
448.675	677.5
448.896	768.5
449.117	667.5
449.338	615.5
449.559	721.5
449.779	839.5
450	664.5
450.221	526.5
450.442	495.5
450.662	472.5
450.883	483.5
451.104	509.5
451.324	475.5
451.545	442.5
451.766	449.5
451.986	439.5
452.207	429.5
452.428	401.5
452.648	406.5
452.869	424.5
453.089	439.5
453.31	441.5
453.53	442.5
453.751	419.5
453.971	409.5
454.192	462.5
454.412	425.5
454.633	425.5
454.853	425.5
455.073	410.5
455.294	446.5
455.514	506.5
455.734	490.5
455.955	427.5
456.175	402.5
456.395	409.5
456.616	399.5
456.836	407.5
457.056	395.5
457.276	379.5
457.497	402.5
457.717	394.5
457.937	404.5
458.157	407.5
458.377	399.5
458.598	453.5
458.818	495.5
459.038	559.5
459.258	578.5
459.478	503.5
459.698	448.5
459.918	422.5
460.138	416.5
460.358	440.5
460.578	427.5
460.798	445.5
461.018	431.5
461.238	419.5
461.458	446.5
461.678	436.5
461.898	431.5
462.118	436.5
462.338	449.5
462.558	433.5
462.777	467.5
462.997	463.5
463.217	450.5
463.437	468.5
463.657	458.5
463.876	452.5
464.096	445.5
464.316	451.5
464.536	451.5
464.755	457.5
464.975	444.5
465.195	536.5
465.414	600.5
465.634	551.5
465.854	482.5
466.073	464.5
466.293	432.5
466.512	433.5
466.732	423.5
466.951	418.5
467.171	407.5
467.391	420.5
467.61	435.5
467.829	439.5
468.049	435.5
468.268	421.5
468.488	407.5
468.707	419.5
468.927	415.5
469.146	403.5
469.365	426.5
469.585	432.5
469.804	418.5
470.023	453.5
470.243	439.5
470.462	428.5
470.681	468.5
470.901	444.5
471.12	430.5
471.339	425.5
471.558	421.5
471.777	436.5
471.997	421.5
472.216	405.5
472.435	439.5
472.654	399.5
472.873	403.5
473.092	414.5
473.311	436.5
473.53	409.5
473.749	460.5
473.968	503.5
474.187	585.5
474.406	608.5
474.625	489.5
474.844	438.5
475.063	435.5
475.282	436.5
475.501	430.5
475.72	421.5
475.939	429.5
476.158	438.5
476.377	439.5
476.596	436.5
476.814	439.5
477.033	453.5
477.252	471.5
477.471	480.5
477.69	479.5
477.908	447.5
478.127	467.5
478.346	476.5
478.564	462.5
478.783	486.5
479.002	487.5
479.22	505.5
479.439	489.5
479.658	513.5
479.876	516.5
480.095	532.5
480.313	552.5
480.532	517.5
480.751	511.5
480.969	502.5
481.188	520.5
481.406	546.5
481.624	546.5
481.843	517.5
482.061	527.5
482.28	490.5
482.498	488.5
482.717	505.5
482.935	482.5
483.153	480.5
483.372	488.5
483.59	525.5
483.808	502.5
484.027	502.5
484.245	523.5
484.463	497.5
484.681	483.5
484.9	491.5
485.118	511.5
485.336	506.5
485.554	516.5
485.772	536.5
485.99	509.5
486.209	498.5
486.427	536.5
486.645	547.5
486.863	569.5
487.081	557.5
487.299	534.5
487.517	530.5
487.735	549.5
487.953	534.5
488.171	536.5
488.389	545.5
488.607	544.5
488.825	565.5
489.043	556.5
489.261	548.5
489.479	536.5
489.696	545.5
489.914	540.5
490.132	569.5
490.35	557.5
490.568	586.5
490.786	607.5
491.003	589.5
491.221	594.5
491.439	605.5
491.657	615.5
491.874	601.5
492.092	615.5
492.31	629.5
492.527	627.5
492.745	617.5
492.963	625.5
493.18	631.5
493.398	639.5
493.615	647.5
493.833	655.5
494.05	645.5
494.268	656.5
494.485	654.5
494.703	642.5
494.92	644.5
495.138	619.5
495.355	646.5
495.573	641.5
495.79	675.5
496.008	658.5
496.225	663.5
496.442	632.5
496.66	659.5
496.877	662.5
497.094	650.5
497.312	667.5
497.529	641.5
497.746	649.5
497.963	667.5
498.181	701.5
498.398	715.5
498.615	709.5
498.832	717.5
499.049	723.5
499.267	729.5
499.484	738.5
499.701	759.5
499.918	751.5
500.135	775.5
500.352	836.5
500.569	834.5
500.786	848.5
501.003	809.5
501.22	819.5
501.437	774.5
501.654	767.5
501.871	799.5
502.088	767.5
502.305	721.5
502.522	716.5
502.739	722.5
502.956	686.5
503.172	677.5
503.389	693.5
503.606	669.5
503.823	686.5
504.04	675.5
504.256	658.5
504.473	644.5
504.69	643.5
504.907	645.5
505.123	630.5
505.34	612.5
505.557	634.5
505.773	625.5
505.99	631.5
506.207	631.5
506.423	644.5
506.64	610.5
506.856	631.5
507.073	618.5
507.289	619.5
507.506	616.5
507.722	610.5
507.939	642.5
508.155	618.5
508.372	608.5
508.588	559.5
508.805	600.5
509.021	591.5
509.238	600.5
509.454	612.5
509.67	613.5
509.887	587.5
510.103	592.5
510.319	627.5
510.536	729.5
510.752	1275.5
510.968	995.5
511.184	619.5
511.401	608.5
511.617	574.5
511.833	594.5
512.049	552.5
512.265	589.5
512.481	574.5
512.698	563.5
512.914	576.5
513.13	568.5
513.346	559.5
513.562	568.5
513.778	562.5
513.994	607.5
514.21	613.5
514.426	603.5
514.642	655.5
514.858	706.5
515.074	697.5
515.29	901.5
515.506	1379.5
515.721	1131.5
515.937	708.5
516.153	641.5
516.369	619.5
516.585	582.5
516.801	591.5
517.016	574.5
517.232	585.5
517.448	564.5
517.664	558.5
517.879	570.5
518.095	577.5
518.311	588.5
518.527	569.5
518.742	575.5
518.958	557.5
519.173	565.5
519.389	553.5
519.605	551.5
519.82	577.5
520.036	594.5
