Data from 1989.PennyLincolnUp.Lamp.En5.5.200Scan.071819.P2_HRD10591_17-25-37-973.txt Node
Date: Thu Jul 18 17:25:37 EDT 2019
User: cochatt
Spectrometer: HR+D1059
Trigger mode: 1
Integration Time (sec): 1.000000E-1
Scans to average: 1
Electric dark correction enabled: true
Nonlinearity correction enabled: false
Boxcar width: 0
XAxis mode: Wavelengths
Number of Pixels in Spectrum: 2048
>>>>>Begin Spectral Data<<<<<
223.165	-21.94
223.4	-21.94
223.635	-21.94
223.869	-17.94
224.104	-18.94
224.338	-12.94
224.573	-16.94
224.808	-19.94
225.042	1.06
225.277	1.06
225.511	5.06
225.746	-3.94
225.98	-3.94
226.215	18.06
226.449	27.06
226.683	6.06
226.918	20.06
227.152	38.06
227.387	34.06
227.621	41.06
227.856	49.06
228.09	45.06
228.324	65.06
228.559	59.06
228.793	54.06
229.027	92.06
229.262	104.06
229.496	127.06
229.73	160.06
229.964	153.06
230.199	145.06
230.433	130.06
230.667	122.06
230.901	117.06
231.136	117.06
231.37	103.06
231.604	110.06
231.838	114.06
232.072	131.06
232.306	126.06
232.541	116.06
232.775	121.06
233.009	119.06
233.243	113.06
233.477	109.06
233.711	125.06
233.945	120.06
234.179	120.06
234.413	126.06
234.647	137.06
234.881	117.06
235.115	119.06
235.349	125.06
235.583	122.06
235.817	113.06
236.051	139.06
236.285	132.06
236.519	117.06
236.753	139.06
236.987	144.06
237.221	183.06
237.455	255.06
237.689	213.06
237.922	153.06
238.156	146.06
238.39	132.06
238.624	135.06
238.858	123.06
239.091	134.06
239.325	127.06
239.559	128.06
239.793	127.06
240.027	143.06
240.26	145.06
240.494	161.06
240.728	166.06
240.961	150.06
241.195	149.06
241.429	156.06
241.662	143.06
241.896	142.06
242.13	148.06
242.363	146.06
242.597	146.06
242.83	155.06
243.064	133.06
243.298	144.06
243.531	147.06
243.765	154.06
243.998	155.06
244.232	141.06
244.465	174.06
244.699	134.06
244.932	150.06
245.166	152.06
245.399	142.06
245.633	150.06
245.866	144.06
246.099	148.06
246.333	162.06
246.566	165.06
246.8	167.06
247.033	169.06
247.266	179.06
247.5	180.06
247.733	187.06
247.966	194.06
248.2	190.06
248.433	186.06
248.666	182.06
248.899	199.06
249.133	227.06
249.366	226.06
249.599	231.06
249.832	203.06
250.066	196.06
250.299	220.06
250.532	235.06
250.765	232.06
250.998	242.06
251.231	263.06
251.465	264.06
251.698	223.06
251.931	209.06
252.164	221.06
252.397	222.06
252.63	222.06
252.863	222.06
253.096	242.06
253.329	270.06
253.562	248.06
253.795	241.06
254.028	242.06
254.261	235.06
254.494	240.06
254.727	289.06
254.96	318.06
255.193	301.06
255.426	283.06
255.659	266.06
255.892	263.06
256.124	269.06
256.357	277.06
256.59	251.06
256.823	245.06
257.056	250.06
257.289	227.06
257.521	249.06
257.754	227.06
257.987	255.06
258.22	235.06
258.452	240.06
258.685	229.06
258.918	225.06
259.151	246.06
259.383	227.06
259.616	234.06
259.849	246.06
260.081	293.06
260.314	285.06
260.547	309.06
260.779	297.06
261.012	260.06
261.244	245.06
261.477	260.06
261.71	256.06
261.942	262.06
262.175	263.06
262.407	278.06
262.64	234.06
262.872	231.06
263.105	246.06
263.337	233.06
263.57	241.06
263.802	227.06
264.035	237.06
264.267	230.06
264.499	241.06
264.732	239.06
264.964	236.06
265.197	246.06
265.429	219.06
265.661	236.06
265.894	249.06
266.126	251.06
266.358	242.06
266.591	238.06
266.823	244.06
267.055	266.06
267.287	257.06
267.52	239.06
267.752	263.06
267.984	253.06
268.216	254.06
268.448	252.06
268.681	264.06
268.913	282.06
269.145	314.06
269.377	290.06
269.609	307.06
269.841	309.06
270.073	300.06
270.306	345.06
270.538	365.06
270.77	364.06
271.002	358.06
271.234	316.06
271.466	326.06
271.698	355.06
271.93	356.06
272.162	353.06
272.394	347.06
272.626	342.06
272.858	326.06
273.09	330.06
273.322	307.06
273.553	297.06
273.785	313.06
274.017	295.06
274.249	301.06
274.481	293.06
274.713	298.06
274.945	313.06
275.176	294.06
275.408	308.06
275.64	295.06
275.872	298.06
276.104	288.06
276.335	283.06
276.567	291.06
276.799	312.06
277.031	356.06
277.262	369.06
277.494	367.06
277.726	345.06
277.957	328.06
278.189	327.06
278.421	291.06
278.652	289.06
278.884	303.06
279.115	302.06
279.347	302.06
279.579	305.06
279.81	301.06
280.042	289.06
280.273	300.06
280.505	288.06
280.736	294.06
280.968	305.06
281.199	283.06
281.431	323.06
281.662	285.06
281.894	302.06
282.125	297.06
282.356	316.06
282.588	338.06
282.819	359.06
283.051	320.06
283.282	303.06
283.513	315.06
283.745	283.06
283.976	311.06
284.207	310.06
284.439	308.06
284.67	323.06
284.901	312.06
285.132	311.06
285.364	302.06
285.595	302.06
285.826	293.06
286.057	319.06
286.288	314.06
286.52	311.06
286.751	291.06
286.982	326.06
287.213	307.06
287.444	309.06
287.675	324.06
287.906	314.06
288.138	346.06
288.369	327.06
288.6	311.06
288.831	309.06
289.062	322.06
289.293	321.06
289.524	313.06
289.755	321.06
289.986	320.06
290.217	306.06
290.448	311.06
290.679	332.06
290.91	300.06
291.141	322.06
291.371	312.06
291.602	314.06
291.833	310.06
292.064	311.06
292.295	312.06
292.526	331.06
292.757	303.06
292.987	297.06
293.218	309.06
293.449	301.06
293.68	318.06
293.91	302.06
294.141	308.06
294.372	307.06
294.603	332.06
294.833	307.06
295.064	308.06
295.295	329.06
295.525	315.06
295.756	340.06
295.987	343.06
296.217	330.06
296.448	335.06
296.679	338.06
296.909	327.06
297.14	324.06
297.37	326.06
297.601	312.06
297.831	331.06
298.062	324.06
298.292	329.06
298.523	325.06
298.753	311.06
298.984	334.06
299.214	329.06
299.445	311.06
299.675	333.06
299.905	318.06
300.136	338.06
300.366	346.06
300.597	337.06
300.827	354.06
301.057	366.06
301.288	346.06
301.518	361.06
301.748	351.06
301.979	356.06
302.209	351.06
302.439	357.06
302.669	356.06
302.9	363.06
303.13	346.06
303.36	343.06
303.59	353.06
303.82	363.06
304.051	386.06
304.281	367.06
304.511	360.06
304.741	340.06
304.971	369.06
305.201	366.06
305.431	370.06
305.661	359.06
305.891	359.06
306.121	370.06
306.352	347.06
306.582	371.06
306.812	369.06
307.042	354.06
307.272	346.06
307.502	355.06
307.731	365.06
307.961	374.06
308.191	377.06
308.421	345.06
308.651	357.06
308.881	353.06
309.111	385.06
309.341	355.06
309.571	384.06
309.8	389.06
310.03	379.06
310.26	395.06
310.49	419.06
310.72	421.06
310.949	448.06
311.179	437.06
311.409	422.06
311.639	402.06
311.868	429.06
312.098	414.06
312.328	421.06
312.557	443.06
312.787	442.06
313.017	476.06
313.246	420.06
313.476	428.06
313.706	413.06
313.935	423.06
314.165	411.06
314.394	431.06
314.624	437.06
314.853	430.06
315.083	425.06
315.312	415.06
315.542	417.06
315.771	414.06
316.001	393.06
316.23	385.06
316.46	400.06
316.689	440.06
316.919	424.06
317.148	438.06
317.377	428.06
317.607	424.06
317.836	427.06
318.065	425.06
318.295	435.06
318.524	391.06
318.753	406.06
318.983	405.06
319.212	414.06
319.441	426.06
319.67	428.06
319.9	422.06
320.129	411.06
320.358	435.06
320.587	444.06
320.816	421.06
321.046	457.06
321.275	439.06
321.504	452.06
321.733	447.06
321.962	453.06
322.191	483.06
322.42	461.06
322.649	480.06
322.878	487.06
323.108	510.06
323.337	544.06
323.566	573.06
323.795	607.06
324.024	663.06
324.253	821.06
324.482	1189.06
324.71	1861.06
324.939	2617.06
325.168	2253.06
325.397	1166.06
325.626	769.06
325.855	651.06
326.084	596.06
326.313	557.06
326.542	591.06
326.77	635.06
326.999	748.06
327.228	1058.06
327.457	1609.06
327.686	1970.06
327.914	1293.06
328.143	857.06
328.372	744.06
328.6	690.06
328.829	627.06
329.058	642.06
329.287	674.06
329.515	630.06
329.744	571.06
329.972	579.06
330.201	618.06
330.43	660.06
330.658	690.06
330.887	696.06
331.115	697.06
331.344	606.06
331.572	567.06
331.801	556.06
332.03	558.06
332.258	514.06
332.486	514.06
332.715	479.06
332.943	487.06
333.172	477.06
333.4	487.06
333.629	506.06
333.857	531.06
334.085	545.06
334.314	559.06
334.542	600.06
334.771	641.06
334.999	569.06
335.227	523.06
335.455	494.06
335.684	485.06
335.912	481.06
336.14	483.06
336.369	479.06
336.597	478.06
336.825	474.06
337.053	481.06
337.281	473.06
337.51	470.06
337.738	453.06
337.966	477.06
338.194	445.06
338.422	452.06
338.65	467.06
338.878	447.06
339.106	462.06
339.334	466.06
339.562	463.06
339.79	467.06
340.018	460.06
340.246	465.06
340.474	478.06
340.702	462.06
340.93	459.06
341.158	463.06
341.386	465.06
341.614	475.06
341.842	475.06
342.07	459.06
342.298	451.06
342.526	443.06
342.754	437.06
342.981	436.06
343.209	426.06
343.437	423.06
343.665	445.06
343.893	441.06
344.12	460.06
344.348	457.06
344.576	466.06
344.804	469.06
345.031	475.06
345.259	491.06
345.487	470.06
345.714	460.06
345.942	438.06
346.17	451.06
346.397	441.06
346.625	446.06
346.853	437.06
347.08	422.06
347.308	445.06
347.535	463.06
347.763	466.06
347.99	461.06
348.218	447.06
348.445	469.06
348.673	452.06
348.9	449.06
349.128	448.06
349.355	425.06
349.583	420.06
349.81	399.06
350.037	420.06
350.265	413.06
350.492	426.06
350.72	434.06
350.947	422.06
351.174	446.06
351.402	465.06
351.629	462.06
351.856	457.06
352.083	453.06
352.311	448.06
352.538	449.06
352.765	483.06
352.992	473.06
353.22	469.06
353.447	434.06
353.674	419.06
353.901	414.06
354.128	406.06
354.355	398.06
354.583	396.06
354.81	394.06
355.037	396.06
355.264	393.06
355.491	405.06
355.718	393.06
355.945	381.06
356.172	389.06
356.399	387.06
356.626	385.06
356.853	389.06
357.08	394.06
357.307	396.06
357.534	389.06
357.761	378.06
357.988	409.06
358.215	414.06
358.441	398.06
358.668	423.06
358.895	389.06
359.122	403.06
359.349	418.06
359.576	431.06
359.802	460.06
360.029	508.06
360.256	499.06
360.483	488.06
360.709	451.06
360.936	447.06
361.163	409.06
361.39	453.06
361.616	451.06
361.843	415.06
362.07	425.06
362.296	437.06
362.523	441.06
362.749	439.06
362.976	448.06
363.203	409.06
363.429	415.06
363.656	418.06
363.882	442.06
364.109	418.06
364.335	407.06
364.562	410.06
364.788	391.06
365.015	397.06
365.241	402.06
365.468	423.06
365.694	410.06
365.92	410.06
366.147	419.06
366.373	405.06
366.599	409.06
366.826	387.06
367.052	396.06
367.278	413.06
367.505	390.06
367.731	407.06
367.957	411.06
368.184	402.06
368.41	400.06
368.636	433.06
368.862	451.06
369.089	414.06
369.315	398.06
369.541	397.06
369.767	388.06
369.993	417.06
370.219	407.06
370.445	410.06
370.672	390.06
370.898	404.06
371.124	399.06
371.35	399.06
371.576	419.06
371.802	408.06
372.028	382.06
372.254	389.06
372.48	403.06
372.706	394.06
372.932	395.06
373.158	382.06
373.384	403.06
373.61	385.06
373.835	414.06
374.061	407.06
374.287	396.06
374.513	411.06
374.739	405.06
374.965	409.06
375.191	409.06
375.416	390.06
375.642	382.06
375.868	398.06
376.094	414.06
376.319	386.06
376.545	395.06
376.771	396.06
376.997	405.06
377.222	387.06
377.448	405.06
377.674	398.06
377.899	382.06
378.125	387.06
378.35	371.06
378.576	377.06
378.802	404.06
379.027	395.06
379.253	378.06
379.478	396.06
379.704	411.06
379.929	379.06
380.155	406.06
380.38	384.06
380.606	383.06
380.831	383.06
381.057	398.06
381.282	412.06
381.507	388.06
381.733	392.06
381.958	407.06
382.184	387.06
382.409	404.06
382.634	407.06
382.86	391.06
383.085	400.06
383.31	412.06
383.535	397.06
383.761	408.06
383.986	419.06
384.211	408.06
384.436	396.06
384.662	394.06
384.887	390.06
385.112	396.06
385.337	412.06
385.562	400.06
385.787	412.06
386.013	420.06
386.238	418.06
386.463	424.06
386.688	411.06
386.913	410.06
387.138	412.06
387.363	418.06
387.588	411.06
387.813	433.06
388.038	431.06
388.263	425.06
388.488	432.06
388.713	436.06
388.938	417.06
389.163	440.06
389.387	417.06
389.612	406.06
389.837	406.06
390.062	425.06
390.287	403.06
390.512	403.06
390.736	404.06
390.961	420.06
391.186	417.06
391.411	410.06
391.636	398.06
391.86	437.06
392.085	428.06
392.31	439.06
392.534	421.06
392.759	436.06
392.984	422.06
393.208	429.06
393.433	402.06
393.658	407.06
393.882	409.06
394.107	407.06
394.331	395.06
394.556	405.06
394.78	403.06
395.005	419.06
395.229	421.06
395.454	428.06
395.678	442.06
395.903	463.06
396.127	460.06
396.352	479.06
396.576	445.06
396.801	438.06
397.025	417.06
397.249	420.06
397.474	439.06
397.698	430.06
397.922	439.06
398.147	461.06
398.371	487.06
398.595	462.06
398.82	454.06
399.044	453.06
399.268	462.06
399.492	499.06
399.717	525.06
399.941	533.06
400.165	572.06
400.389	579.06
400.613	518.06
400.837	514.06
401.062	477.06
401.286	469.06
401.51	455.06
401.734	467.06
401.958	469.06
402.182	472.06
402.406	484.06
402.63	488.06
402.854	477.06
403.078	470.06
403.302	459.06
403.526	491.06
403.75	486.06
403.974	494.06
404.198	477.06
404.422	468.06
404.645	488.06
404.869	495.06
405.093	520.06
405.317	587.06
405.541	608.06
405.765	565.06
405.988	498.06
406.212	531.06
406.436	560.06
406.66	564.06
406.883	540.06
407.107	554.06
407.331	616.06
407.555	661.06
407.778	641.06
408.002	593.06
408.226	549.06
408.449	550.06
408.673	542.06
408.896	571.06
409.12	604.06
409.344	577.06
409.567	526.06
409.791	487.06
410.014	476.06
410.238	503.06
410.461	494.06
410.685	486.06
410.908	539.06
411.132	523.06
411.355	567.06
411.578	544.06
411.802	526.06
412.025	499.06
412.249	494.06
412.472	520.06
412.695	556.06
412.919	561.06
413.142	525.06
413.365	512.06
413.589	463.06
413.812	455.06
414.035	474.06
414.258	467.06
414.482	445.06
414.705	441.06
414.928	467.06
415.151	439.06
415.374	439.06
415.597	435.06
415.821	455.06
416.044	465.06
416.267	467.06
416.49	455.06
416.713	452.06
416.936	459.06
417.159	442.06
417.382	448.06
417.605	462.06
417.828	475.06
418.051	484.06
418.274	493.06
418.497	489.06
418.72	462.06
418.943	453.06
419.166	474.06
419.389	502.06
419.611	470.06
419.834	491.06
420.057	506.06
420.28	482.06
420.503	480.06
420.726	503.06
420.948	519.06
421.171	556.06
421.394	544.06
421.617	523.06
421.839	471.06
422.062	486.06
422.285	495.06
422.507	550.06
422.73	637.06
422.953	607.06
423.175	529.06
423.398	519.06
423.621	474.06
423.843	533.06
424.066	535.06
424.288	533.06
424.511	547.06
424.733	611.06
424.956	691.06
425.178	645.06
425.401	651.06
425.623	699.06
425.846	579.06
426.068	537.06
426.291	533.06
426.513	539.06
426.735	522.06
426.958	562.06
427.18	676.06
427.402	781.06
427.625	883.06
427.847	805.06
428.069	709.06
428.292	614.06
428.514	554.06
428.736	524.06
428.958	501.06
429.181	495.06
429.403	494.06
429.625	518.06
429.847	528.06
430.069	594.06
430.292	591.06
430.514	516.06
430.736	488.06
430.958	486.06
431.18	484.06
431.402	450.06
431.624	443.06
431.846	442.06
432.068	450.06
432.29	446.06
432.512	462.06
432.734	499.06
432.956	452.06
433.178	455.06
433.4	487.06
433.622	462.06
433.844	439.06
434.066	451.06
434.287	469.06
434.509	470.06
434.731	457.06
434.953	469.06
435.175	491.06
435.397	518.06
435.618	529.06
435.84	601.06
436.062	671.06
436.284	733.06
436.505	590.06
436.727	559.06
436.949	482.06
437.17	480.06
437.392	471.06
437.614	489.06
437.835	545.06
438.057	642.06
438.278	732.06
438.5	735.06
438.721	811.06
438.943	747.06
439.165	621.06
439.386	551.06
439.608	559.06
439.829	548.06
440.05	582.06
440.272	637.06
440.493	574.06
440.715	507.06
440.936	480.06
441.158	511.06
441.379	484.06
441.6	505.06
441.822	530.06
442.043	552.06
442.264	670.06
442.486	691.06
442.707	574.06
442.928	550.06
443.149	559.06
443.371	559.06
443.592	659.06
443.813	720.06
444.034	763.06
444.255	636.06
444.476	539.06
444.698	528.06
444.919	525.06
445.14	655.06
445.361	616.06
445.582	601.06
445.803	644.06
446.024	757.06
446.245	771.06
446.466	690.06
446.687	588.06
446.908	536.06
447.129	538.06
447.35	514.06
447.571	517.06
447.792	489.06
448.013	505.06
448.234	516.06
448.455	595.06
448.675	689.06
448.896	813.06
449.117	659.06
449.338	637.06
449.559	751.06
449.779	849.06
450	681.06
450.221	574.06
450.442	515.06
450.662	499.06
450.883	486.06
451.104	519.06
451.324	484.06
451.545	479.06
451.766	467.06
451.986	434.06
452.207	435.06
452.428	445.06
452.648	417.06
452.869	409.06
453.089	456.06
453.31	452.06
453.53	466.06
453.751	425.06
453.971	418.06
454.192	458.06
454.412	460.06
454.633	430.06
454.853	436.06
455.073	436.06
455.294	466.06
455.514	501.06
455.734	511.06
455.955	462.06
456.175	424.06
456.395	398.06
456.616	401.06
456.836	405.06
457.056	413.06
457.276	384.06
457.497	389.06
457.717	411.06
457.937	409.06
458.157	425.06
458.377	416.06
458.598	444.06
458.818	502.06
459.038	589.06
459.258	592.06
459.478	522.06
459.698	475.06
459.918	471.06
460.138	451.06
460.358	425.06
460.578	454.06
460.798	455.06
461.018	460.06
461.238	449.06
461.458	449.06
461.678	455.06
461.898	449.06
462.118	462.06
462.338	471.06
462.558	454.06
462.777	463.06
462.997	469.06
463.217	474.06
463.437	475.06
463.657	481.06
463.876	501.06
464.096	476.06
464.316	475.06
464.536	488.06
464.755	469.06
464.975	481.06
465.195	534.06
465.414	596.06
465.634	555.06
465.854	498.06
466.073	477.06
466.293	435.06
466.512	450.06
466.732	452.06
466.951	428.06
467.171	446.06
467.391	460.06
467.61	470.06
467.829	470.06
468.049	452.06
468.268	464.06
468.488	443.06
468.707	443.06
468.927	427.06
469.146	402.06
469.365	417.06
469.585	430.06
469.804	436.06
470.023	437.06
470.243	436.06
470.462	446.06
470.681	452.06
470.901	466.06
471.12	452.06
471.339	437.06
471.558	419.06
471.777	431.06
471.997	442.06
472.216	452.06
472.435	497.06
472.654	496.06
472.873	468.06
473.092	437.06
473.311	461.06
473.53	467.06
473.749	486.06
473.968	520.06
474.187	629.06
474.406	635.06
474.625	516.06
474.844	487.06
475.063	455.06
475.282	445.06
475.501	466.06
475.72	439.06
475.939	472.06
476.158	463.06
476.377	453.06
476.596	435.06
476.814	468.06
477.033	459.06
477.252	482.06
477.471	473.06
477.69	482.06
477.908	496.06
478.127	473.06
478.346	465.06
478.564	476.06
478.783	493.06
479.002	489.06
479.22	517.06
479.439	487.06
479.658	536.06
479.876	541.06
480.095	548.06
480.313	571.06
480.532	552.06
480.751	535.06
480.969	567.06
481.188	640.06
481.406	697.06
481.624	610.06
481.843	559.06
482.061	542.06
482.28	517.06
482.498	525.06
482.717	532.06
482.935	513.06
483.153	529.06
483.372	527.06
483.59	540.06
483.808	532.06
484.027	531.06
484.245	526.06
484.463	532.06
484.681	539.06
484.9	517.06
485.118	565.06
485.336	550.06
485.554	543.06
485.772	526.06
485.99	551.06
486.209	556.06
486.427	573.06
486.645	558.06
486.863	590.06
487.081	587.06
487.299	595.06
487.517	577.06
487.735	551.06
487.953	564.06
488.171	558.06
488.389	572.06
488.607	567.06
488.825	578.06
489.043	597.06
489.261	580.06
489.479	580.06
489.696	590.06
489.914	580.06
490.132	602.06
490.35	602.06
490.568	594.06
490.786	626.06
491.003	626.06
491.221	644.06
491.439	643.06
491.657	636.06
491.874	666.06
492.092	653.06
492.31	661.06
492.527	673.06
492.745	664.06
492.963	653.06
493.18	638.06
493.398	685.06
493.615	671.06
493.833	665.06
494.05	679.06
494.268	692.06
494.485	686.06
494.703	694.06
494.92	668.06
495.138	685.06
495.355	689.06
495.573	675.06
495.79	673.06
496.008	684.06
496.225	680.06
496.442	686.06
496.66	693.06
496.877	674.06
497.094	677.06
497.312	673.06
497.529	686.06
497.746	712.06
497.963	685.06
498.181	692.06
498.398	745.06
498.615	731.06
498.832	748.06
499.049	741.06
499.267	747.06
499.484	751.06
499.701	778.06
499.918	810.06
500.135	834.06
500.352	849.06
500.569	877.06
500.786	879.06
501.003	857.06
501.22	863.06
501.437	838.06
501.654	793.06
501.871	830.06
