Data from 1989.PennyLincolnUp.Lamp.En5.5.200Scan.071819.P2_HRD10591_17-25-17-974.txt Node
Date: Thu Jul 18 17:25:17 EDT 2019
User: cochatt
Spectrometer: HR+D1059
Trigger mode: 1
Integration Time (sec): 1.000000E-1
Scans to average: 1
Electric dark correction enabled: true
Nonlinearity correction enabled: false
Boxcar width: 0
XAxis mode: Wavelengths
Number of Pixels in Spectrum: 2048
>>>>>Begin Spectral Data<<<<<
223.165	-16.56
223.4	-16.56
223.635	-16.56
223.869	-4.56
224.104	-9.56
224.338	-20.56
224.573	-16.56
224.808	-19.56
225.042	-12.56
225.277	-2.56
225.511	2.44
225.746	-4.56
225.98	0.44
226.215	13.44
226.449	11.44
226.683	24.44
226.918	21.44
227.152	33.44
227.387	36.44
227.621	31.44
227.856	47.44
228.09	46.44
228.324	51.44
228.559	71.44
228.793	66.44
229.027	99.44
229.262	105.44
229.496	114.44
229.73	140.44
229.964	159.44
230.199	136.44
230.433	122.44
230.667	108.44
230.901	101.44
231.136	117.44
231.37	117.44
231.604	119.44
231.838	119.44
232.072	120.44
232.306	112.44
232.541	111.44
232.775	115.44
233.009	121.44
233.243	128.44
233.477	114.44
233.711	122.44
233.945	133.44
234.179	116.44
234.413	142.44
234.647	117.44
234.881	118.44
235.115	117.44
235.349	128.44
235.583	131.44
235.817	124.44
236.051	137.44
236.285	143.44
236.519	140.44
236.753	137.44
236.987	144.44
237.221	192.44
237.455	248.44
237.689	200.44
237.922	147.44
238.156	125.44
238.39	137.44
238.624	132.44
238.858	132.44
239.091	124.44
239.325	124.44
239.559	123.44
239.793	123.44
240.027	142.44
240.26	145.44
240.494	178.44
240.728	168.44
240.961	138.44
241.195	151.44
241.429	146.44
241.662	142.44
241.896	148.44
242.13	133.44
242.363	121.44
242.597	145.44
242.83	127.44
243.064	151.44
243.298	139.44
243.531	122.44
243.765	144.44
243.998	137.44
244.232	160.44
244.465	158.44
244.699	136.44
244.932	156.44
245.166	142.44
245.399	135.44
245.633	143.44
245.866	164.44
246.099	171.44
246.333	153.44
246.566	142.44
246.8	172.44
247.033	168.44
247.266	169.44
247.5	172.44
247.733	189.44
247.966	188.44
248.2	187.44
248.433	195.44
248.666	179.44
248.899	211.44
249.133	199.44
249.366	210.44
249.599	234.44
249.832	200.44
250.066	213.44
250.299	204.44
250.532	207.44
250.765	205.44
250.998	242.44
251.231	247.44
251.465	227.44
251.698	216.44
251.931	220.44
252.164	232.44
252.397	225.44
252.63	217.44
252.863	217.44
253.096	230.44
253.329	257.44
253.562	239.44
253.795	258.44
254.028	263.44
254.261	250.44
254.494	249.44
254.727	296.44
254.96	310.44
255.193	304.44
255.426	265.44
255.659	260.44
255.892	247.44
256.124	250.44
256.357	254.44
256.59	273.44
256.823	259.44
257.056	218.44
257.289	224.44
257.521	235.44
257.754	223.44
257.987	218.44
258.22	239.44
258.452	247.44
258.685	221.44
258.918	230.44
259.151	230.44
259.383	255.44
259.616	241.44
259.849	236.44
260.081	247.44
260.314	287.44
260.547	305.44
260.779	285.44
261.012	270.44
261.244	268.44
261.477	252.44
261.71	245.44
261.942	257.44
262.175	280.44
262.407	255.44
262.64	241.44
262.872	225.44
263.105	231.44
263.337	217.44
263.57	230.44
263.802	247.44
264.035	223.44
264.267	229.44
264.499	219.44
264.732	214.44
264.964	227.44
265.197	214.44
265.429	226.44
265.661	252.44
265.894	259.44
266.126	235.44
266.358	239.44
266.591	227.44
266.823	244.44
267.055	247.44
267.287	267.44
267.52	241.44
267.752	236.44
267.984	241.44
268.216	257.44
268.448	247.44
268.681	264.44
268.913	265.44
269.145	290.44
269.377	335.44
269.609	297.44
269.841	305.44
270.073	291.44
270.306	338.44
270.538	356.44
270.77	347.44
271.002	356.44
271.234	339.44
271.466	332.44
271.698	337.44
271.93	360.44
272.162	358.44
272.394	360.44
272.626	344.44
272.858	332.44
273.09	300.44
273.322	296.44
273.553	307.44
273.785	321.44
274.017	283.44
274.249	300.44
274.481	307.44
274.713	299.44
274.945	308.44
275.176	311.44
275.408	275.44
275.64	290.44
275.872	281.44
276.104	300.44
276.335	307.44
276.567	288.44
276.799	313.44
277.031	346.44
277.262	352.44
277.494	380.44
277.726	345.44
277.957	321.44
278.189	316.44
278.421	294.44
278.652	291.44
278.884	295.44
279.115	283.44
279.347	293.44
279.579	298.44
279.81	284.44
280.042	287.44
280.273	290.44
280.505	278.44
280.736	296.44
280.968	292.44
281.199	289.44
281.431	297.44
281.662	282.44
281.894	296.44
282.125	307.44
282.356	329.44
282.588	327.44
282.819	349.44
283.051	318.44
283.282	300.44
283.513	300.44
283.745	309.44
283.976	300.44
284.207	320.44
284.439	303.44
284.67	317.44
284.901	308.44
285.132	287.44
285.364	291.44
285.595	299.44
285.826	312.44
286.057	315.44
286.288	304.44
286.52	308.44
286.751	299.44
286.982	323.44
287.213	315.44
287.444	308.44
287.675	300.44
287.906	280.44
288.138	324.44
288.369	332.44
288.6	344.44
288.831	316.44
289.062	311.44
289.293	335.44
289.524	313.44
289.755	325.44
289.986	302.44
290.217	311.44
290.448	276.44
290.679	308.44
290.91	325.44
291.141	297.44
291.371	323.44
291.602	321.44
291.833	321.44
292.064	323.44
292.295	315.44
292.526	305.44
292.757	313.44
292.987	304.44
293.218	304.44
293.449	309.44
293.68	328.44
293.91	310.44
294.141	320.44
294.372	302.44
294.603	294.44
294.833	313.44
295.064	320.44
295.295	309.44
295.525	307.44
295.756	304.44
295.987	323.44
296.217	348.44
296.448	369.44
296.679	363.44
296.909	321.44
297.14	326.44
297.37	334.44
297.601	308.44
297.831	323.44
298.062	316.44
298.292	309.44
298.523	325.44
298.753	327.44
298.984	297.44
299.214	323.44
299.445	347.44
299.675	330.44
299.905	314.44
300.136	331.44
300.366	340.44
300.597	346.44
300.827	331.44
301.057	330.44
301.288	349.44
301.518	349.44
301.748	332.44
301.979	348.44
302.209	351.44
302.439	345.44
302.669	368.44
302.9	356.44
303.13	351.44
303.36	347.44
303.59	352.44
303.82	362.44
304.051	365.44
304.281	344.44
304.511	323.44
304.741	349.44
304.971	346.44
305.201	344.44
305.431	355.44
305.661	365.44
305.891	336.44
306.121	353.44
306.352	365.44
306.582	373.44
306.812	360.44
307.042	348.44
307.272	357.44
307.502	369.44
307.731	373.44
307.961	356.44
308.191	349.44
308.421	346.44
308.651	370.44
308.881	358.44
309.111	389.44
309.341	343.44
309.571	392.44
309.8	393.44
310.03	403.44
310.26	427.44
310.49	412.44
310.72	418.44
310.949	424.44
311.179	456.44
311.409	427.44
311.639	399.44
311.868	417.44
312.098	417.44
312.328	420.44
312.557	444.44
312.787	467.44
313.017	464.44
313.246	421.44
313.476	392.44
313.706	415.44
313.935	396.44
314.165	421.44
314.394	458.44
314.624	452.44
314.853	428.44
315.083	420.44
315.312	425.44
315.542	410.44
315.771	407.44
316.001	381.44
316.23	407.44
316.46	420.44
316.689	407.44
316.919	423.44
317.148	425.44
317.377	425.44
317.607	420.44
317.836	428.44
318.065	418.44
318.295	400.44
318.524	419.44
318.753	408.44
318.983	426.44
319.212	420.44
319.441	423.44
319.67	432.44
319.9	413.44
320.129	407.44
320.358	395.44
320.587	428.44
320.816	443.44
321.046	442.44
321.275	437.44
321.504	443.44
321.733	446.44
321.962	426.44
322.191	450.44
322.42	467.44
322.649	507.44
322.878	498.44
323.108	504.44
323.337	534.44
323.566	563.44
323.795	588.44
324.024	660.44
324.253	804.44
324.482	1191.44
324.71	1835.44
324.939	2618.44
325.168	2305.44
325.397	1171.44
325.626	771.44
325.855	635.44
326.084	579.44
326.313	575.44
326.542	588.44
326.77	646.44
326.999	746.44
327.228	1059.44
327.457	1619.44
327.686	1982.44
327.914	1330.44
328.143	833.44
328.372	755.44
328.6	653.44
328.829	635.44
329.058	676.44
329.287	647.44
329.515	594.44
329.744	559.44
329.972	576.44
330.201	587.44
330.43	624.44
330.658	646.44
330.887	682.44
331.115	671.44
331.344	587.44
331.572	537.44
331.801	532.44
332.03	547.44
332.258	524.44
332.486	479.44
332.715	482.44
332.943	495.44
333.172	480.44
333.4	469.44
333.629	500.44
333.857	493.44
334.085	515.44
334.314	533.44
334.542	536.44
334.771	562.44
334.999	512.44
335.227	517.44
335.455	476.44
335.684	468.44
335.912	470.44
336.14	475.44
336.369	468.44
336.597	484.44
336.825	473.44
337.053	481.44
337.281	463.44
337.51	474.44
337.738	460.44
337.966	468.44
338.194	476.44
338.422	480.44
338.65	441.44
338.878	482.44
339.106	454.44
339.334	447.44
339.562	448.44
339.79	440.44
340.018	416.44
340.246	470.44
340.474	458.44
340.702	448.44
340.93	443.44
341.158	437.44
341.386	460.44
341.614	443.44
341.842	466.44
342.07	445.44
342.298	444.44
342.526	427.44
342.754	414.44
342.981	423.44
343.209	427.44
343.437	431.44
343.665	431.44
343.893	463.44
344.12	440.44
344.348	448.44
344.576	452.44
344.804	453.44
345.031	454.44
345.259	471.44
345.487	445.44
345.714	467.44
345.942	443.44
346.17	453.44
346.397	432.44
346.625	449.44
346.853	460.44
347.08	438.44
347.308	447.44
347.535	437.44
347.763	436.44
347.99	451.44
348.218	469.44
348.445	460.44
348.673	436.44
348.9	454.44
349.128	442.44
349.355	432.44
349.583	418.44
349.81	409.44
350.037	409.44
350.265	435.44
350.492	417.44
350.72	425.44
350.947	449.44
351.174	444.44
351.402	438.44
351.629	452.44
351.856	452.44
352.083	442.44
352.311	455.44
352.538	456.44
352.765	457.44
352.992	448.44
353.22	452.44
353.447	438.44
353.674	420.44
353.901	423.44
354.128	419.44
354.355	422.44
354.583	418.44
354.81	404.44
355.037	417.44
355.264	400.44
355.491	396.44
355.718	384.44
355.945	384.44
356.172	379.44
356.399	385.44
356.626	377.44
356.853	410.44
357.08	393.44
357.307	397.44
357.534	403.44
357.761	391.44
357.988	394.44
358.215	393.44
358.441	381.44
358.668	403.44
358.895	419.44
359.122	418.44
359.349	400.44
359.576	429.44
359.802	457.44
360.029	497.44
360.256	476.44
360.483	467.44
360.709	448.44
360.936	439.44
361.163	427.44
361.39	434.44
361.616	433.44
361.843	441.44
362.07	423.44
362.296	415.44
362.523	439.44
362.749	425.44
362.976	435.44
363.203	419.44
363.429	407.44
363.656	406.44
363.882	395.44
364.109	401.44
364.335	415.44
364.562	417.44
364.788	397.44
365.015	408.44
365.241	408.44
365.468	419.44
365.694	426.44
365.92	409.44
366.147	425.44
366.373	402.44
366.599	394.44
366.826	399.44
367.052	383.44
367.278	395.44
367.505	396.44
367.731	399.44
367.957	415.44
368.184	415.44
368.41	427.44
368.636	422.44
368.862	422.44
369.089	427.44
369.315	395.44
369.541	422.44
369.767	385.44
369.993	396.44
370.219	416.44
370.445	387.44
370.672	377.44
370.898	407.44
371.124	406.44
371.35	381.44
371.576	394.44
371.802	384.44
372.028	401.44
372.254	406.44
372.48	389.44
372.706	397.44
372.932	402.44
373.158	404.44
373.384	386.44
373.61	394.44
373.835	408.44
374.061	397.44
374.287	406.44
374.513	404.44
374.739	388.44
374.965	391.44
375.191	377.44
375.416	408.44
375.642	402.44
375.868	410.44
376.094	385.44
376.319	385.44
376.545	403.44
376.771	396.44
376.997	405.44
377.222	381.44
377.448	400.44
377.674	412.44
377.899	379.44
378.125	383.44
378.35	371.44
378.576	368.44
378.802	374.44
379.027	392.44
379.253	372.44
379.478	370.44
379.704	381.44
379.929	370.44
380.155	398.44
380.38	376.44
380.606	376.44
380.831	377.44
381.057	388.44
381.282	411.44
381.507	396.44
381.733	399.44
381.958	390.44
382.184	387.44
382.409	398.44
382.634	400.44
382.86	392.44
383.085	403.44
383.31	411.44
383.535	405.44
383.761	393.44
383.986	416.44
384.211	376.44
384.436	410.44
384.662	394.44
384.887	409.44
385.112	405.44
385.337	386.44
385.562	423.44
385.787	414.44
386.013	417.44
386.238	446.44
386.463	417.44
386.688	439.44
386.913	396.44
387.138	431.44
387.363	400.44
387.588	412.44
387.813	410.44
388.038	400.44
388.263	401.44
388.488	407.44
388.713	412.44
388.938	426.44
389.163	404.44
389.387	415.44
389.612	410.44
389.837	416.44
390.062	418.44
390.287	407.44
390.512	410.44
390.736	405.44
390.961	404.44
391.186	393.44
391.411	416.44
391.636	414.44
391.86	405.44
392.085	403.44
392.31	441.44
392.534	439.44
392.759	434.44
392.984	426.44
393.208	409.44
393.433	408.44
393.658	417.44
393.882	407.44
394.107	417.44
394.331	420.44
394.556	404.44
394.78	403.44
395.005	414.44
395.229	436.44
395.454	437.44
395.678	428.44
395.903	433.44
396.127	455.44
396.352	449.44
396.576	417.44
396.801	427.44
397.025	438.44
397.249	423.44
397.474	418.44
397.698	436.44
397.922	442.44
398.147	460.44
398.371	468.44
398.595	435.44
398.82	451.44
399.044	461.44
399.268	474.44
399.492	493.44
399.717	523.44
399.941	549.44
400.165	575.44
400.389	570.44
400.613	523.44
400.837	496.44
401.062	468.44
401.286	448.44
401.51	468.44
401.734	494.44
401.958	481.44
402.182	480.44
402.406	479.44
402.63	479.44
402.854	465.44
403.078	442.44
403.302	462.44
403.526	483.44
403.75	476.44
403.974	476.44
404.198	483.44
404.422	474.44
404.645	475.44
404.869	474.44
405.093	521.44
405.317	533.44
405.541	598.44
405.765	543.44
405.988	519.44
406.212	507.44
406.436	543.44
406.66	551.44
406.883	537.44
407.107	555.44
407.331	581.44
407.555	652.44
407.778	643.44
408.002	608.44
408.226	555.44
408.449	530.44
408.673	541.44
408.896	569.44
409.12	611.44
409.344	567.44
409.567	519.44
409.791	509.44
410.014	476.44
410.238	483.44
410.461	478.44
410.685	483.44
410.908	495.44
411.132	554.44
411.355	559.44
411.578	548.44
411.802	508.44
412.025	484.44
412.249	501.44
412.472	523.44
412.695	532.44
412.919	523.44
413.142	481.44
413.365	473.44
413.589	469.44
413.812	463.44
414.035	480.44
414.258	461.44
414.482	447.44
414.705	437.44
414.928	453.44
415.151	471.44
415.374	460.44
415.597	458.44
415.821	447.44
416.044	443.44
416.267	455.44
416.49	445.44
416.713	445.44
416.936	447.44
417.159	454.44
417.382	451.44
417.605	468.44
417.828	488.44
418.051	492.44
418.274	484.44
418.497	469.44
418.72	466.44
418.943	431.44
419.166	472.44
419.389	495.44
419.611	496.44
419.834	488.44
420.057	482.44
420.28	475.44
420.503	477.44
420.726	477.44
420.948	496.44
421.171	543.44
421.394	575.44
421.617	512.44
421.839	476.44
422.062	459.44
422.285	490.44
422.507	548.44
422.73	623.44
422.953	612.44
423.175	493.44
423.398	511.44
423.621	516.44
423.843	528.44
424.066	519.44
424.288	533.44
424.511	523.44
424.733	575.44
424.956	706.44
425.178	650.44
425.401	651.44
425.623	696.44
425.846	586.44
426.068	559.44
426.291	541.44
426.513	533.44
426.735	565.44
426.958	593.44
427.18	659.44
427.402	819.44
427.625	900.44
427.847	758.44
428.069	673.44
428.292	591.44
428.514	539.44
428.736	484.44
428.958	514.44
429.181	509.44
429.403	492.44
429.625	491.44
429.847	517.44
430.069	603.44
430.292	604.44
430.514	490.44
430.736	468.44
430.958	485.44
431.18	467.44
431.402	477.44
431.624	456.44
431.846	438.44
432.068	459.44
432.29	439.44
432.512	460.44
432.734	461.44
432.956	460.44
433.178	473.44
433.4	468.44
433.622	448.44
433.844	437.44
434.066	455.44
434.287	458.44
434.509	443.44
434.731	461.44
434.953	471.44
435.175	479.44
435.397	512.44
435.618	537.44
435.84	576.44
436.062	649.44
436.284	743.44
436.505	632.44
436.727	574.44
436.949	482.44
437.17	495.44
437.392	494.44
437.614	513.44
437.835	548.44
438.057	645.44
438.278	777.44
438.5	731.44
438.721	815.44
438.943	790.44
439.165	604.44
439.386	565.44
439.608	548.44
439.829	539.44
440.05	584.44
440.272	628.44
440.493	587.44
440.715	527.44
440.936	505.44
441.158	488.44
441.379	502.44
441.6	499.44
441.822	514.44
442.043	565.44
442.264	648.44
442.486	693.44
442.707	596.44
442.928	563.44
443.149	555.44
443.371	554.44
443.592	602.44
443.813	714.44
444.034	771.44
444.255	651.44
444.476	543.44
444.698	530.44
444.919	510.44
445.14	612.44
445.361	577.44
445.582	577.44
445.803	643.44
446.024	769.44
446.245	741.44
446.466	710.44
446.687	561.44
446.908	539.44
447.129	532.44
447.35	493.44
447.571	500.44
447.792	491.44
448.013	498.44
448.234	533.44
448.455	571.44
448.675	695.44
448.896	811.44
449.117	675.44
449.338	643.44
449.559	743.44
449.779	833.44
450	654.44
450.221	543.44
450.442	491.44
450.662	467.44
450.883	491.44
451.104	510.44
451.324	491.44
451.545	478.44
451.766	441.44
451.986	444.44
452.207	425.44
452.428	423.44
452.648	418.44
452.869	453.44
453.089	442.44
453.31	465.44
453.53	447.44
453.751	440.44
453.971	463.44
454.192	475.44
454.412	449.44
454.633	440.44
454.853	454.44
455.073	426.44
455.294	445.44
455.514	524.44
455.734	523.44
455.955	456.44
456.175	417.44
456.395	415.44
456.616	407.44
456.836	417.44
457.056	387.44
457.276	422.44
457.497	435.44
457.717	413.44
457.937	406.44
458.157	424.44
458.377	426.44
458.598	444.44
458.818	509.44
459.038	604.44
459.258	623.44
459.478	525.44
459.698	452.44
459.918	431.44
460.138	454.44
460.358	465.44
460.578	422.44
460.798	465.44
461.018	454.44
461.238	432.44
461.458	444.44
461.678	441.44
461.898	424.44
462.118	446.44
462.338	449.44
462.558	467.44
462.777	464.44
462.997	463.44
463.217	461.44
463.437	492.44
463.657	482.44
463.876	465.44
464.096	475.44
464.316	472.44
464.536	472.44
464.755	474.44
464.975	480.44
465.195	531.44
465.414	651.44
465.634	548.44
465.854	498.44
466.073	453.44
466.293	448.44
466.512	433.44
466.732	426.44
466.951	427.44
467.171	426.44
467.391	442.44
467.61	431.44
467.829	469.44
468.049	450.44
468.268	453.44
468.488	440.44
468.707	436.44
468.927	429.44
469.146	414.44
469.365	411.44
469.585	439.44
469.804	426.44
470.023	446.44
470.243	457.44
470.462	455.44
470.681	465.44
470.901	464.44
471.12	432.44
471.339	432.44
471.558	461.44
471.777	453.44
471.997	432.44
472.216	433.44
472.435	467.44
472.654	472.44
472.873	419.44
473.092	447.44
473.311	423.44
473.53	442.44
473.749	471.44
473.968	523.44
474.187	600.44
474.406	645.44
474.625	521.44
474.844	474.44
475.063	448.44
475.282	455.44
475.501	447.44
475.72	436.44
475.939	440.44
476.158	448.44
476.377	442.44
476.596	462.44
476.814	449.44
477.033	469.44
477.252	444.44
477.471	458.44
477.69	474.44
477.908	462.44
478.127	468.44
478.346	472.44
478.564	476.44
478.783	485.44
479.002	507.44
479.22	497.44
479.439	516.44
479.658	520.44
479.876	533.44
480.095	529.44
480.313	577.44
480.532	533.44
480.751	556.44
480.969	548.44
481.188	602.44
481.406	645.44
481.624	564.44
481.843	539.44
482.061	541.44
482.28	524.44
482.498	523.44
482.717	511.44
482.935	520.44
483.153	525.44
483.372	514.44
483.59	507.44
483.808	540.44
484.027	519.44
484.245	492.44
484.463	520.44
484.681	521.44
484.9	539.44
485.118	533.44
485.336	546.44
485.554	523.44
485.772	551.44
485.99	534.44
486.209	561.44
486.427	543.44
486.645	537.44
486.863	581.44
487.081	576.44
487.299	560.44
487.517	577.44
487.735	547.44
487.953	569.44
488.171	565.44
488.389	545.44
488.607	554.44
488.825	577.44
489.043	576.44
489.261	570.44
489.479	571.44
489.696	568.44
489.914	569.44
490.132	582.44
490.35	571.44
490.568	604.44
490.786	586.44
491.003	599.44
491.221	636.44
491.439	628.44
491.657	624.44
491.874	664.44
492.092	642.44
492.31	654.44
492.527	667.44
492.745	639.44
492.963	663.44
493.18	668.44
493.398	663.44
493.615	673.44
493.833	685.44
494.05	662.44
494.268	689.44
494.485	647.44
494.703	670.44
494.92	671.44
495.138	678.44
495.355	689.44
495.573	685.44
495.79	667.44
496.008	657.44
496.225	681.44
496.442	663.44
496.66	654.44
496.877	668.44
497.094	694.44
497.312	703.44
497.529	675.44
497.746	695.44
497.963	702.44
498.181	723.44
498.398	723.44
498.615	716.44
498.832	744.44
499.049	736.44
499.267	742.44
499.484	776.44
499.701	786.44
499.918	810.44
500.135	786.44
500.352	837.44
500.569	858.44
500.786	855.44
501.003	889.44
501.22	861.44
501.437	833.44
501.654	840.44
501.871	831.44
