Data from 1989.PennyLincolnUp.Lamp.En5.5.200Scan.071819.P2_HRD10591_17-23-28-972.txt Node
Date: Thu Jul 18 17:23:28 EDT 2019
User: cochatt
Spectrometer: HR+D1059
Trigger mode: 1
Integration Time (sec): 1.000000E-1
Scans to average: 1
Electric dark correction enabled: true
Nonlinearity correction enabled: false
Boxcar width: 0
XAxis mode: Wavelengths
Number of Pixels in Spectrum: 2048
>>>>>Begin Spectral Data<<<<<
223.165	-19.12
223.4	-19.12
223.635	-19.12
223.869	-6.12
224.104	-16.12
224.338	-9.12
224.573	-38.12
224.808	-19.12
225.042	7.88
225.277	-3.12
225.511	-2.12
225.746	-5.12
225.98	2.88
226.215	13.88
226.449	18.88
226.683	21.88
226.918	30.88
227.152	21.88
227.387	28.88
227.621	37.88
227.856	42.88
228.09	44.88
228.324	50.88
228.559	51.88
228.793	69.88
229.027	113.88
229.262	104.88
229.496	122.88
229.73	120.88
229.964	135.88
230.199	120.88
230.433	99.88
230.667	97.88
230.901	88.88
231.136	108.88
231.37	114.88
231.604	109.88
231.838	103.88
232.072	100.88
232.306	104.88
232.541	109.88
232.775	118.88
233.009	119.88
233.243	110.88
233.477	105.88
233.711	100.88
233.945	108.88
234.179	133.88
234.413	110.88
234.647	128.88
234.881	124.88
235.115	106.88
235.349	119.88
235.583	114.88
235.817	117.88
236.051	119.88
236.285	122.88
236.519	121.88
236.753	133.88
236.987	144.88
237.221	163.88
237.455	213.88
237.689	190.88
237.922	126.88
238.156	114.88
238.39	121.88
238.624	115.88
238.858	128.88
239.091	121.88
239.325	121.88
239.559	114.88
239.793	109.88
240.027	123.88
240.26	136.88
240.494	152.88
240.728	142.88
240.961	138.88
241.195	138.88
241.429	135.88
241.662	124.88
241.896	136.88
242.13	125.88
242.363	135.88
242.597	131.88
242.83	128.88
243.064	154.88
243.298	123.88
243.531	133.88
243.765	130.88
243.998	129.88
244.232	134.88
244.465	152.88
244.699	142.88
244.932	131.88
245.166	128.88
245.399	145.88
245.633	143.88
245.866	133.88
246.099	147.88
246.333	146.88
246.566	140.88
246.8	132.88
247.033	148.88
247.266	159.88
247.5	149.88
247.733	159.88
247.966	162.88
248.2	156.88
248.433	168.88
248.666	173.88
248.899	197.88
249.133	190.88
249.366	191.88
249.599	189.88
249.832	192.88
250.066	169.88
250.299	180.88
250.532	178.88
250.765	204.88
250.998	220.88
251.231	224.88
251.465	205.88
251.698	205.88
251.931	194.88
252.164	198.88
252.397	184.88
252.63	191.88
252.863	199.88
253.096	200.88
253.329	218.88
253.562	220.88
253.795	217.88
254.028	219.88
254.261	201.88
254.494	216.88
254.727	243.88
254.96	268.88
255.193	273.88
255.426	230.88
255.659	229.88
255.892	200.88
256.124	215.88
256.357	207.88
256.59	205.88
256.823	201.88
257.056	202.88
257.289	219.88
257.521	210.88
257.754	220.88
257.987	204.88
258.22	217.88
258.452	224.88
258.685	206.88
258.918	216.88
259.151	209.88
259.383	205.88
259.616	226.88
259.849	226.88
260.081	233.88
260.314	245.88
260.547	256.88
260.779	245.88
261.012	250.88
261.244	226.88
261.477	224.88
261.71	228.88
261.942	223.88
262.175	232.88
262.407	221.88
262.64	218.88
262.872	216.88
263.105	209.88
263.337	202.88
263.57	200.88
263.802	201.88
264.035	213.88
264.267	213.88
264.499	215.88
264.732	201.88
264.964	197.88
265.197	218.88
265.429	214.88
265.661	213.88
265.894	230.88
266.126	216.88
266.358	208.88
266.591	225.88
266.823	223.88
267.055	225.88
267.287	201.88
267.52	220.88
267.752	220.88
267.984	220.88
268.216	216.88
268.448	213.88
268.681	234.88
268.913	260.88
269.145	256.88
269.377	268.88
269.609	273.88
269.841	250.88
270.073	261.88
270.306	289.88
270.538	297.88
270.77	315.88
271.002	296.88
271.234	292.88
271.466	293.88
271.698	295.88
271.93	309.88
272.162	307.88
272.394	300.88
272.626	295.88
272.858	297.88
273.09	280.88
273.322	285.88
273.553	264.88
273.785	273.88
274.017	274.88
274.249	264.88
274.481	254.88
274.713	265.88
274.945	277.88
275.176	275.88
275.408	260.88
275.64	255.88
275.872	237.88
276.104	260.88
276.335	248.88
276.567	262.88
276.799	289.88
277.031	300.88
277.262	302.88
277.494	288.88
277.726	266.88
277.957	293.88
278.189	284.88
278.421	266.88
278.652	271.88
278.884	267.88
279.115	264.88
279.347	246.88
279.579	260.88
279.81	245.88
280.042	262.88
280.273	240.88
280.505	258.88
280.736	251.88
280.968	279.88
281.199	264.88
281.431	267.88
281.662	259.88
281.894	278.88
282.125	269.88
282.356	294.88
282.588	294.88
282.819	315.88
283.051	282.88
283.282	242.88
283.513	273.88
283.745	273.88
283.976	277.88
284.207	290.88
284.439	289.88
284.67	276.88
284.901	281.88
285.132	267.88
285.364	272.88
285.595	271.88
285.826	249.88
286.057	268.88
286.288	280.88
286.52	280.88
286.751	281.88
286.982	266.88
287.213	268.88
287.444	278.88
287.675	285.88
287.906	276.88
288.138	308.88
288.369	292.88
288.6	294.88
288.831	290.88
289.062	282.88
289.293	284.88
289.524	270.88
289.755	242.88
289.986	286.88
290.217	289.88
290.448	272.88
290.679	288.88
290.91	281.88
291.141	277.88
291.371	282.88
291.602	290.88
291.833	285.88
292.064	290.88
292.295	277.88
292.526	273.88
292.757	293.88
292.987	289.88
293.218	271.88
293.449	264.88
293.68	289.88
293.91	272.88
294.141	294.88
294.372	273.88
294.603	288.88
294.833	288.88
295.064	290.88
295.295	284.88
295.525	273.88
295.756	298.88
295.987	274.88
296.217	311.88
296.448	310.88
296.679	312.88
296.909	292.88
297.14	303.88
297.37	288.88
297.601	285.88
297.831	275.88
298.062	278.88
298.292	310.88
298.523	297.88
298.753	285.88
298.984	297.88
299.214	296.88
299.445	313.88
299.675	310.88
299.905	281.88
300.136	296.88
300.366	301.88
300.597	290.88
300.827	299.88
301.057	320.88
301.288	305.88
301.518	300.88
301.748	322.88
301.979	309.88
302.209	312.88
302.439	308.88
302.669	322.88
302.9	293.88
303.13	283.88
303.36	299.88
303.59	315.88
303.82	318.88
304.051	309.88
304.281	320.88
304.511	300.88
304.741	308.88
304.971	329.88
305.201	313.88
305.431	311.88
305.661	307.88
305.891	317.88
306.121	320.88
306.352	310.88
306.582	301.88
306.812	312.88
307.042	326.88
307.272	320.88
307.502	323.88
307.731	325.88
307.961	319.88
308.191	312.88
308.421	341.88
308.651	326.88
308.881	342.88
309.111	326.88
309.341	338.88
309.571	331.88
309.8	368.88
310.03	340.88
310.26	352.88
310.49	360.88
310.72	363.88
310.949	372.88
311.179	374.88
311.409	357.88
311.639	363.88
311.868	357.88
312.098	355.88
312.328	355.88
312.557	374.88
312.787	384.88
313.017	369.88
313.246	366.88
313.476	381.88
313.706	374.88
313.935	390.88
314.165	387.88
314.394	384.88
314.624	357.88
314.853	368.88
315.083	364.88
315.312	338.88
315.542	358.88
315.771	351.88
316.001	356.88
316.23	361.88
316.46	351.88
316.689	374.88
316.919	352.88
317.148	370.88
317.377	392.88
317.607	374.88
317.836	386.88
318.065	371.88
318.295	354.88
318.524	350.88
318.753	361.88
318.983	363.88
319.212	377.88
319.441	368.88
319.67	378.88
319.9	346.88
320.129	347.88
320.358	366.88
320.587	376.88
320.816	363.88
321.046	379.88
321.275	395.88
321.504	389.88
321.733	390.88
321.962	387.88
322.191	404.88
322.42	406.88
322.649	416.88
322.878	428.88
323.108	434.88
323.337	459.88
323.566	461.88
323.795	486.88
324.024	545.88
324.253	662.88
324.482	900.88
324.71	1390.88
324.939	1954.88
325.168	1722.88
325.397	883.88
325.626	619.88
325.855	532.88
326.084	476.88
326.313	472.88
326.542	476.88
326.77	523.88
326.999	605.88
327.228	817.88
327.457	1222.88
327.686	1474.88
327.914	994.88
328.143	654.88
328.372	569.88
328.6	532.88
328.829	542.88
329.058	541.88
329.287	546.88
329.515	497.88
329.744	455.88
329.972	448.88
330.201	447.88
330.43	477.88
330.658	526.88
330.887	536.88
331.115	574.88
331.344	497.88
331.572	460.88
331.801	468.88
332.03	448.88
332.258	450.88
332.486	434.88
332.715	407.88
332.943	406.88
333.172	413.88
333.4	410.88
333.629	435.88
333.857	417.88
334.085	416.88
334.314	442.88
334.542	426.88
334.771	432.88
334.999	450.88
335.227	416.88
335.455	427.88
335.684	419.88
335.912	425.88
336.14	415.88
336.369	409.88
336.597	418.88
336.825	398.88
337.053	395.88
337.281	417.88
337.51	432.88
337.738	423.88
337.966	408.88
338.194	406.88
338.422	393.88
338.65	414.88
338.878	403.88
339.106	392.88
339.334	413.88
339.562	389.88
339.79	390.88
340.018	409.88
340.246	395.88
340.474	411.88
340.702	387.88
340.93	398.88
341.158	409.88
341.386	387.88
341.614	409.88
341.842	417.88
342.07	403.88
342.298	392.88
342.526	398.88
342.754	402.88
342.981	382.88
343.209	382.88
343.437	388.88
343.665	399.88
343.893	406.88
344.12	395.88
344.348	394.88
344.576	406.88
344.804	408.88
345.031	398.88
345.259	402.88
345.487	429.88
345.714	401.88
345.942	381.88
346.17	414.88
346.397	397.88
346.625	399.88
346.853	376.88
347.08	388.88
347.308	411.88
347.535	397.88
347.763	382.88
347.99	395.88
348.218	399.88
348.445	418.88
348.673	404.88
348.9	391.88
349.128	397.88
349.355	376.88
349.583	390.88
349.81	385.88
350.037	375.88
350.265	377.88
350.492	377.88
350.72	391.88
350.947	373.88
351.174	397.88
351.402	381.88
351.629	386.88
351.856	390.88
352.083	388.88
352.311	394.88
352.538	384.88
352.765	381.88
352.992	391.88
353.22	384.88
353.447	369.88
353.674	380.88
353.901	370.88
354.128	363.88
354.355	372.88
354.583	372.88
354.81	369.88
355.037	372.88
355.264	365.88
355.491	362.88
355.718	366.88
355.945	372.88
356.172	350.88
356.399	342.88
356.626	363.88
356.853	357.88
357.08	360.88
357.307	356.88
357.534	353.88
357.761	362.88
357.988	370.88
358.215	360.88
358.441	365.88
358.668	368.88
358.895	373.88
359.122	356.88
359.349	378.88
359.576	384.88
359.802	403.88
360.029	423.88
360.256	428.88
360.483	400.88
360.709	404.88
360.936	384.88
361.163	378.88
361.39	357.88
361.616	388.88
361.843	396.88
362.07	379.88
362.296	371.88
362.523	391.88
362.749	384.88
362.976	375.88
363.203	372.88
363.429	366.88
363.656	376.88
363.882	352.88
364.109	378.88
364.335	356.88
364.562	355.88
364.788	370.88
365.015	351.88
365.241	364.88
365.468	371.88
365.694	395.88
365.92	355.88
366.147	359.88
366.373	363.88
366.599	368.88
366.826	344.88
367.052	363.88
367.278	369.88
367.505	363.88
367.731	363.88
367.957	368.88
368.184	371.88
368.41	368.88
368.636	375.88
368.862	380.88
369.089	387.88
369.315	339.88
369.541	330.88
369.767	360.88
369.993	361.88
370.219	364.88
370.445	358.88
370.672	363.88
370.898	354.88
371.124	333.88
371.35	345.88
371.576	347.88
371.802	350.88
372.028	350.88
372.254	375.88
372.48	380.88
372.706	355.88
372.932	365.88
373.158	361.88
373.384	375.88
373.61	374.88
373.835	358.88
374.061	354.88
374.287	365.88
374.513	361.88
374.739	371.88
374.965	371.88
375.191	367.88
375.416	379.88
375.642	380.88
375.868	363.88
376.094	370.88
376.319	373.88
376.545	352.88
376.771	357.88
376.997	341.88
377.222	374.88
377.448	359.88
377.674	355.88
377.899	362.88
378.125	359.88
378.35	352.88
378.576	369.88
378.802	356.88
379.027	354.88
379.253	355.88
379.478	357.88
379.704	334.88
379.929	362.88
380.155	359.88
380.38	346.88
380.606	357.88
380.831	361.88
381.057	348.88
381.282	364.88
381.507	334.88
381.733	337.88
381.958	359.88
382.184	383.88
382.409	352.88
382.634	386.88
382.86	361.88
383.085	367.88
383.31	374.88
383.535	361.88
383.761	374.88
383.986	361.88
384.211	370.88
384.436	374.88
384.662	372.88
384.887	376.88
385.112	387.88
385.337	398.88
385.562	372.88
385.787	383.88
386.013	395.88
386.238	384.88
386.463	371.88
386.688	382.88
386.913	362.88
387.138	387.88
387.363	390.88
387.588	376.88
387.813	398.88
388.038	388.88
388.263	378.88
388.488	395.88
388.713	365.88
388.938	382.88
389.163	382.88
389.387	387.88
389.612	368.88
389.837	381.88
390.062	400.88
390.287	379.88
390.512	380.88
390.736	390.88
390.961	381.88
391.186	385.88
391.411	386.88
391.636	394.88
391.86	384.88
392.085	395.88
392.31	393.88
392.534	386.88
392.759	390.88
392.984	389.88
393.208	388.88
393.433	392.88
393.658	396.88
393.882	381.88
394.107	382.88
394.331	378.88
394.556	402.88
394.78	391.88
395.005	382.88
395.229	370.88
395.454	389.88
395.678	390.88
395.903	406.88
396.127	412.88
396.352	425.88
396.576	399.88
396.801	403.88
397.025	409.88
397.249	397.88
397.474	393.88
397.698	392.88
397.922	397.88
398.147	417.88
398.371	437.88
398.595	412.88
398.82	426.88
399.044	426.88
399.268	420.88
399.492	470.88
399.717	472.88
399.941	506.88
400.165	532.88
400.389	537.88
400.613	503.88
400.837	439.88
401.062	426.88
401.286	438.88
401.51	426.88
401.734	441.88
401.958	429.88
402.182	424.88
402.406	438.88
402.63	434.88
402.854	459.88
403.078	438.88
403.302	427.88
403.526	441.88
403.75	432.88
403.974	445.88
404.198	423.88
404.422	425.88
404.645	413.88
404.869	441.88
405.093	438.88
405.317	478.88
405.541	508.88
405.765	469.88
405.988	466.88
406.212	450.88
406.436	490.88
406.66	505.88
406.883	474.88
407.107	526.88
407.331	524.88
407.555	569.88
407.778	596.88
408.002	531.88
408.226	489.88
408.449	481.88
408.673	493.88
408.896	536.88
409.12	557.88
409.344	526.88
409.567	465.88
409.791	464.88
410.014	457.88
410.238	445.88
410.461	446.88
410.685	428.88
410.908	472.88
411.132	473.88
411.355	524.88
411.578	488.88
411.802	457.88
412.025	454.88
412.249	453.88
412.472	439.88
412.695	460.88
412.919	445.88
413.142	433.88
413.365	442.88
413.589	430.88
413.812	395.88
414.035	400.88
414.258	418.88
414.482	419.88
414.705	422.88
414.928	413.88
415.151	402.88
415.374	413.88
415.597	404.88
415.821	422.88
416.044	385.88
416.267	417.88
416.49	422.88
416.713	428.88
416.936	409.88
417.159	408.88
417.382	416.88
417.605	423.88
417.828	429.88
418.051	448.88
418.274	432.88
418.497	395.88
418.72	410.88
418.943	412.88
419.166	436.88
419.389	442.88
419.611	453.88
419.834	444.88
420.057	431.88
420.28	424.88
420.503	422.88
420.726	427.88
420.948	434.88
421.171	480.88
421.394	495.88
421.617	468.88
421.839	454.88
422.062	433.88
422.285	437.88
422.507	503.88
422.73	577.88
422.953	562.88
423.175	501.88
423.398	469.88
423.621	451.88
423.843	490.88
424.066	474.88
424.288	475.88
424.511	485.88
424.733	550.88
424.956	602.88
425.178	580.88
425.401	567.88
425.623	586.88
425.846	498.88
426.068	460.88
426.291	456.88
426.513	464.88
426.735	465.88
426.958	526.88
427.18	602.88
427.402	717.88
427.625	786.88
427.847	670.88
428.069	571.88
428.292	514.88
428.514	468.88
428.736	470.88
428.958	436.88
429.181	420.88
429.403	438.88
429.625	437.88
429.847	471.88
430.069	550.88
430.292	553.88
430.514	459.88
430.736	466.88
430.958	444.88
431.18	394.88
431.402	421.88
431.624	421.88
431.846	411.88
432.068	417.88
432.29	444.88
432.512	422.88
432.734	404.88
432.956	413.88
433.178	436.88
433.4	422.88
433.622	418.88
433.844	409.88
434.066	415.88
434.287	440.88
434.509	421.88
434.731	420.88
434.953	428.88
435.175	450.88
435.397	483.88
435.618	483.88
435.84	515.88
436.062	605.88
436.284	667.88
436.505	540.88
436.727	496.88
436.949	472.88
437.17	439.88
437.392	452.88
437.614	454.88
437.835	493.88
438.057	569.88
438.278	660.88
438.5	644.88
438.721	729.88
438.943	699.88
439.165	550.88
439.386	506.88
439.608	512.88
439.829	481.88
440.05	520.88
440.272	557.88
440.493	505.88
440.715	460.88
440.936	456.88
441.158	434.88
441.379	457.88
441.6	425.88
441.822	464.88
442.043	499.88
442.264	594.88
442.486	626.88
442.707	520.88
442.928	481.88
443.149	501.88
443.371	537.88
443.592	550.88
443.813	629.88
444.034	682.88
444.255	565.88
444.476	500.88
444.698	496.88
444.919	458.88
445.14	560.88
445.361	518.88
445.582	510.88
445.803	581.88
446.024	670.88
446.245	672.88
446.466	606.88
446.687	524.88
446.908	474.88
447.129	459.88
447.35	444.88
447.571	440.88
447.792	442.88
448.013	448.88
448.234	471.88
448.455	500.88
448.675	592.88
448.896	716.88
449.117	596.88
449.338	561.88
449.559	659.88
449.779	756.88
450	598.88
450.221	498.88
450.442	459.88
450.662	434.88
450.883	463.88
451.104	452.88
451.324	428.88
451.545	425.88
451.766	410.88
451.986	396.88
452.207	389.88
452.428	392.88
452.648	393.88
452.869	382.88
453.089	425.88
453.31	419.88
453.53	388.88
453.751	379.88
453.971	388.88
454.192	409.88
454.412	396.88
454.633	389.88
454.853	394.88
455.073	389.88
455.294	413.88
455.514	468.88
455.734	453.88
455.955	392.88
456.175	389.88
456.395	366.88
456.616	349.88
456.836	386.88
457.056	381.88
457.276	362.88
457.497	380.88
457.717	362.88
457.937	379.88
458.157	384.88
458.377	374.88
458.598	401.88
458.818	460.88
459.038	499.88
459.258	529.88
459.478	462.88
459.698	406.88
459.918	408.88
460.138	435.88
460.358	406.88
460.578	402.88
460.798	427.88
461.018	426.88
461.238	417.88
461.458	399.88
461.678	408.88
461.898	404.88
462.118	417.88
462.338	418.88
462.558	406.88
462.777	420.88
462.997	439.88
463.217	444.88
463.437	446.88
463.657	430.88
463.876	417.88
464.096	438.88
464.316	413.88
464.536	428.88
464.755	425.88
464.975	454.88
465.195	471.88
465.414	549.88
465.634	480.88
465.854	422.88
466.073	436.88
466.293	389.88
466.512	402.88
466.732	387.88
466.951	413.88
467.171	406.88
467.391	395.88
467.61	396.88
467.829	419.88
468.049	408.88
468.268	382.88
468.488	370.88
468.707	393.88
468.927	395.88
469.146	394.88
469.365	386.88
469.585	409.88
469.804	408.88
470.023	399.88
470.243	385.88
470.462	420.88
470.681	425.88
470.901	409.88
471.12	409.88
471.339	397.88
471.558	404.88
471.777	395.88
471.997	396.88
472.216	396.88
472.435	401.88
472.654	392.88
472.873	383.88
473.092	397.88
473.311	395.88
473.53	403.88
473.749	422.88
473.968	457.88
474.187	549.88
474.406	568.88
474.625	468.88
474.844	405.88
475.063	403.88
475.282	398.88
475.501	400.88
475.72	418.88
475.939	413.88
476.158	419.88
476.377	421.88
476.596	417.88
476.814	428.88
477.033	430.88
477.252	432.88
477.471	415.88
477.69	429.88
477.908	429.88
478.127	439.88
478.346	448.88
478.564	440.88
478.783	436.88
479.002	449.88
479.22	443.88
479.439	444.88
479.658	478.88
479.876	454.88
480.095	456.88
480.313	519.88
480.532	488.88
480.751	473.88
480.969	485.88
481.188	498.88
481.406	471.88
481.624	491.88
481.843	476.88
482.061	469.88
482.28	472.88
482.498	461.88
482.717	460.88
482.935	450.88
483.153	470.88
483.372	473.88
483.59	450.88
483.808	462.88
484.027	469.88
484.245	460.88
484.463	468.88
484.681	490.88
484.9	487.88
485.118	484.88
485.336	475.88
485.554	489.88
485.772	482.88
485.99	493.88
486.209	486.88
486.427	472.88
486.645	491.88
486.863	532.88
487.081	498.88
487.299	500.88
487.517	508.88
487.735	489.88
487.953	492.88
488.171	486.88
488.389	522.88
488.607	509.88
488.825	509.88
489.043	498.88
489.261	523.88
489.479	505.88
489.696	511.88
489.914	505.88
490.132	508.88
490.35	513.88
490.568	521.88
490.786	515.88
491.003	524.88
491.221	565.88
491.439	551.88
491.657	551.88
491.874	552.88
492.092	565.88
492.31	580.88
492.527	577.88
492.745	577.88
492.963	578.88
493.18	593.88
493.398	583.88
493.615	588.88
493.833	577.88
494.05	573.88
494.268	598.88
494.485	593.88
494.703	563.88
494.92	597.88
495.138	580.88
495.355	561.88
495.573	578.88
495.79	589.88
496.008	596.88
496.225	594.88
496.442	598.88
496.66	577.88
496.877	611.88
497.094	601.88
497.312	596.88
497.529	624.88
497.746	602.88
497.963	630.88
498.181	630.88
498.398	644.88
498.615	645.88
498.832	679.88
499.049	650.88
499.267	682.88
499.484	712.88
499.701	710.88
499.918	700.88
500.135	754.88
500.352	776.88
500.569	782.88
500.786	775.88
501.003	776.88
501.22	771.88
501.437	755.88
501.654	731.88
501.871	738.88
502.088	722.88
