Data from 1989.PennyLincolnUp.Lamp.En5.5.200Scan.071819.P2_HRD10591_17-26-12-974.txt Node
Date: Thu Jul 18 17:26:12 EDT 2019
User: cochatt
Spectrometer: HR+D1059
Trigger mode: 1
Integration Time (sec): 1.000000E-1
Scans to average: 1
Electric dark correction enabled: true
Nonlinearity correction enabled: false
Boxcar width: 0
XAxis mode: Wavelengths
Number of Pixels in Spectrum: 2048
>>>>>Begin Spectral Data<<<<<
223.165	-4.44
223.4	-4.44
223.635	-4.44
223.869	-9.44
224.104	-30.44
224.338	-28.44
224.573	-11.44
224.808	-10.44
225.042	1.56
225.277	-9.44
225.511	-5.44
225.746	20.56
225.98	5.56
226.215	14.56
226.449	6.56
226.683	18.56
226.918	19.56
227.152	22.56
227.387	26.56
227.621	46.56
227.856	48.56
228.09	52.56
228.324	51.56
228.559	58.56
228.793	62.56
229.027	107.56
229.262	96.56
229.496	107.56
229.73	147.56
229.964	157.56
230.199	126.56
230.433	120.56
230.667	121.56
230.901	120.56
231.136	113.56
231.37	118.56
231.604	108.56
231.838	108.56
232.072	123.56
232.306	112.56
232.541	116.56
232.775	96.56
233.009	117.56
233.243	107.56
233.477	106.56
233.711	124.56
233.945	128.56
234.179	132.56
234.413	130.56
234.647	111.56
234.881	118.56
235.115	118.56
235.349	111.56
235.583	132.56
235.817	125.56
236.051	118.56
236.285	136.56
236.519	135.56
236.753	137.56
236.987	178.56
237.221	201.56
237.455	245.56
237.689	189.56
237.922	156.56
238.156	142.56
238.39	150.56
238.624	131.56
238.858	134.56
239.091	119.56
239.325	116.56
239.559	132.56
239.793	140.56
240.027	135.56
240.26	157.56
240.494	176.56
240.728	160.56
240.961	158.56
241.195	156.56
241.429	166.56
241.662	135.56
241.896	139.56
242.13	151.56
242.363	139.56
242.597	137.56
242.83	136.56
243.064	146.56
243.298	152.56
243.531	147.56
243.765	139.56
243.998	157.56
244.232	148.56
244.465	143.56
244.699	158.56
244.932	146.56
245.166	147.56
245.399	160.56
245.633	151.56
245.866	151.56
246.099	153.56
246.333	174.56
246.566	172.56
246.8	167.56
247.033	177.56
247.266	159.56
247.5	186.56
247.733	194.56
247.966	188.56
248.2	189.56
248.433	176.56
248.666	199.56
248.899	200.56
249.133	225.56
249.366	254.56
249.599	235.56
249.832	213.56
250.066	195.56
250.299	193.56
250.532	231.56
250.765	238.56
250.998	263.56
251.231	269.56
251.465	239.56
251.698	227.56
251.931	232.56
252.164	220.56
252.397	221.56
252.63	236.56
252.863	233.56
253.096	242.56
253.329	256.56
253.562	262.56
253.795	245.56
254.028	254.56
254.261	248.56
254.494	262.56
254.727	280.56
254.96	294.56
255.193	313.56
255.426	284.56
255.659	281.56
255.892	280.56
256.124	278.56
256.357	290.56
256.59	269.56
256.823	258.56
257.056	250.56
257.289	267.56
257.521	254.56
257.754	247.56
257.987	234.56
258.22	258.56
258.452	228.56
258.685	234.56
258.918	238.56
259.151	238.56
259.383	232.56
259.616	250.56
259.849	259.56
260.081	272.56
260.314	282.56
260.547	297.56
260.779	283.56
261.012	248.56
261.244	257.56
261.477	239.56
261.71	265.56
261.942	256.56
262.175	270.56
262.407	272.56
262.64	256.56
262.872	247.56
263.105	230.56
263.337	238.56
263.57	226.56
263.802	243.56
264.035	226.56
264.267	222.56
264.499	222.56
264.732	225.56
264.964	231.56
265.197	239.56
265.429	235.56
265.661	252.56
265.894	242.56
266.126	238.56
266.358	236.56
266.591	254.56
266.823	261.56
267.055	258.56
267.287	269.56
267.52	254.56
267.752	254.56
267.984	273.56
268.216	252.56
268.448	251.56
268.681	265.56
268.913	272.56
269.145	292.56
269.377	303.56
269.609	326.56
269.841	304.56
270.073	320.56
270.306	321.56
270.538	376.56
270.77	347.56
271.002	358.56
271.234	331.56
271.466	336.56
271.698	358.56
271.93	371.56
272.162	362.56
272.394	372.56
272.626	343.56
272.858	317.56
273.09	313.56
273.322	307.56
273.553	306.56
273.785	281.56
274.017	284.56
274.249	299.56
274.481	305.56
274.713	293.56
274.945	314.56
275.176	304.56
275.408	300.56
275.64	305.56
275.872	306.56
276.104	294.56
276.335	299.56
276.567	337.56
276.799	322.56
277.031	354.56
277.262	356.56
277.494	372.56
277.726	352.56
277.957	342.56
278.189	320.56
278.421	314.56
278.652	318.56
278.884	313.56
279.115	323.56
279.347	322.56
279.579	299.56
279.81	291.56
280.042	309.56
280.273	299.56
280.505	294.56
280.736	300.56
280.968	301.56
281.199	308.56
281.431	294.56
281.662	292.56
281.894	284.56
282.125	300.56
282.356	336.56
282.588	342.56
282.819	340.56
283.051	292.56
283.282	299.56
283.513	311.56
283.745	295.56
283.976	305.56
284.207	318.56
284.439	329.56
284.67	307.56
284.901	316.56
285.132	312.56
285.364	307.56
285.595	315.56
285.826	300.56
286.057	313.56
286.288	294.56
286.52	303.56
286.751	329.56
286.982	308.56
287.213	329.56
287.444	331.56
287.675	330.56
287.906	327.56
288.138	329.56
288.369	322.56
288.6	341.56
288.831	320.56
289.062	330.56
289.293	315.56
289.524	340.56
289.755	326.56
289.986	320.56
290.217	323.56
290.448	335.56
290.679	322.56
290.91	320.56
291.141	326.56
291.371	311.56
291.602	337.56
291.833	310.56
292.064	329.56
292.295	300.56
292.526	328.56
292.757	315.56
292.987	334.56
293.218	323.56
293.449	310.56
293.68	331.56
293.91	322.56
294.141	312.56
294.372	310.56
294.603	319.56
294.833	316.56
295.064	322.56
295.295	332.56
295.525	322.56
295.756	313.56
295.987	322.56
296.217	354.56
296.448	376.56
296.679	344.56
296.909	320.56
297.14	326.56
297.37	327.56
297.601	317.56
297.831	326.56
298.062	338.56
298.292	348.56
298.523	352.56
298.753	331.56
298.984	334.56
299.214	346.56
299.445	333.56
299.675	359.56
299.905	330.56
300.136	365.56
300.366	353.56
300.597	335.56
300.827	361.56
301.057	351.56
301.288	354.56
301.518	363.56
301.748	348.56
301.979	350.56
302.209	376.56
302.439	353.56
302.669	360.56
302.9	370.56
303.13	350.56
303.36	358.56
303.59	374.56
303.82	380.56
304.051	381.56
304.281	368.56
304.511	366.56
304.741	364.56
304.971	368.56
305.201	375.56
305.431	352.56
305.661	354.56
305.891	371.56
306.121	366.56
306.352	372.56
306.582	382.56
306.812	370.56
307.042	360.56
307.272	366.56
307.502	355.56
307.731	382.56
307.961	376.56
308.191	363.56
308.421	371.56
308.651	363.56
308.881	374.56
309.111	384.56
309.341	371.56
309.571	388.56
309.8	403.56
310.03	409.56
310.26	424.56
310.49	417.56
310.72	426.56
310.949	455.56
311.179	449.56
311.409	437.56
311.639	425.56
311.868	421.56
312.098	416.56
312.328	437.56
312.557	446.56
312.787	459.56
313.017	476.56
313.246	437.56
313.476	423.56
313.706	427.56
313.935	428.56
314.165	443.56
314.394	458.56
314.624	445.56
314.853	440.56
315.083	430.56
315.312	424.56
315.542	409.56
315.771	411.56
316.001	408.56
316.23	424.56
316.46	402.56
316.689	432.56
316.919	426.56
317.148	427.56
317.377	446.56
317.607	439.56
317.836	440.56
318.065	413.56
318.295	432.56
318.524	412.56
318.753	415.56
318.983	396.56
319.212	400.56
319.441	431.56
319.67	451.56
319.9	438.56
320.129	423.56
320.358	436.56
320.587	466.56
320.816	425.56
321.046	458.56
321.275	444.56
321.504	464.56
321.733	473.56
321.962	464.56
322.191	458.56
322.42	500.56
322.649	515.56
322.878	523.56
323.108	503.56
323.337	546.56
323.566	583.56
323.795	610.56
324.024	678.56
324.253	853.56
324.482	1203.56
324.71	1845.56
324.939	2704.56
325.168	2315.56
325.397	1182.56
325.626	786.56
325.855	647.56
326.084	595.56
326.313	584.56
326.542	588.56
326.77	636.56
326.999	796.56
327.228	1046.56
327.457	1653.56
327.686	2032.56
327.914	1352.56
328.143	882.56
328.372	804.56
328.6	720.56
328.829	666.56
329.058	682.56
329.287	692.56
329.515	662.56
329.744	614.56
329.972	640.56
330.201	675.56
330.43	716.56
330.658	748.56
330.887	745.56
331.115	687.56
331.344	602.56
331.572	558.56
331.801	572.56
332.03	560.56
332.258	526.56
332.486	542.56
332.715	517.56
332.943	496.56
333.172	510.56
333.4	520.56
333.629	518.56
333.857	576.56
334.085	594.56
334.314	611.56
334.542	712.56
334.771	704.56
334.999	622.56
335.227	548.56
335.455	534.56
335.684	509.56
335.912	510.56
336.14	489.56
336.369	487.56
336.597	503.56
336.825	482.56
337.053	460.56
337.281	470.56
337.51	497.56
337.738	507.56
337.966	503.56
338.194	478.56
338.422	482.56
338.65	483.56
338.878	491.56
339.106	476.56
339.334	463.56
339.562	458.56
339.79	459.56
340.018	477.56
340.246	451.56
340.474	480.56
340.702	463.56
340.93	472.56
341.158	476.56
341.386	468.56
341.614	471.56
341.842	464.56
342.07	462.56
342.298	464.56
342.526	447.56
342.754	443.56
342.981	444.56
343.209	455.56
343.437	446.56
343.665	443.56
343.893	443.56
344.12	486.56
344.348	450.56
344.576	460.56
344.804	474.56
345.031	471.56
345.259	466.56
345.487	473.56
345.714	464.56
345.942	462.56
346.17	460.56
346.397	473.56
346.625	449.56
346.853	468.56
347.08	455.56
347.308	453.56
347.535	467.56
347.763	457.56
347.99	455.56
348.218	449.56
348.445	470.56
348.673	478.56
348.9	444.56
349.128	452.56
349.355	434.56
349.583	408.56
349.81	436.56
350.037	432.56
350.265	430.56
350.492	437.56
350.72	425.56
350.947	450.56
351.174	443.56
351.402	466.56
351.629	447.56
351.856	432.56
352.083	461.56
352.311	467.56
352.538	446.56
352.765	463.56
352.992	467.56
353.22	467.56
353.447	465.56
353.674	442.56
353.901	430.56
354.128	425.56
354.355	440.56
354.583	440.56
354.81	422.56
355.037	435.56
355.264	413.56
355.491	397.56
355.718	419.56
355.945	414.56
356.172	392.56
356.399	398.56
356.626	392.56
356.853	400.56
357.08	383.56
357.307	404.56
357.534	404.56
357.761	396.56
357.988	430.56
358.215	416.56
358.441	411.56
358.668	399.56
358.895	418.56
359.122	425.56
359.349	419.56
359.576	434.56
359.802	467.56
360.029	498.56
360.256	496.56
360.483	494.56
360.709	453.56
360.936	446.56
361.163	419.56
361.39	440.56
361.616	450.56
361.843	432.56
362.07	439.56
362.296	438.56
362.523	404.56
362.749	422.56
362.976	452.56
363.203	446.56
363.429	430.56
363.656	432.56
363.882	418.56
364.109	427.56
364.335	406.56
364.562	412.56
364.788	412.56
365.015	408.56
365.241	408.56
365.468	431.56
365.694	406.56
365.92	428.56
366.147	412.56
366.373	402.56
366.599	435.56
366.826	410.56
367.052	422.56
367.278	400.56
367.505	407.56
367.731	406.56
367.957	424.56
368.184	414.56
368.41	421.56
368.636	434.56
368.862	421.56
369.089	436.56
369.315	422.56
369.541	414.56
369.767	401.56
369.993	407.56
370.219	411.56
370.445	415.56
370.672	403.56
370.898	402.56
371.124	405.56
371.35	410.56
371.576	393.56
371.802	400.56
372.028	402.56
372.254	391.56
372.48	402.56
372.706	402.56
372.932	398.56
373.158	416.56
373.384	402.56
373.61	420.56
373.835	416.56
374.061	403.56
374.287	386.56
374.513	408.56
374.739	396.56
374.965	391.56
375.191	411.56
375.416	418.56
375.642	401.56
375.868	405.56
376.094	409.56
376.319	414.56
376.545	402.56
376.771	400.56
376.997	395.56
377.222	396.56
377.448	393.56
377.674	412.56
377.899	380.56
378.125	400.56
378.35	400.56
378.576	399.56
378.802	408.56
379.027	407.56
379.253	392.56
379.478	400.56
379.704	394.56
379.929	393.56
380.155	393.56
380.38	375.56
380.606	410.56
380.831	384.56
381.057	389.56
381.282	386.56
381.507	394.56
381.733	368.56
381.958	396.56
382.184	375.56
382.409	408.56
382.634	414.56
382.86	387.56
383.085	412.56
383.31	397.56
383.535	418.56
383.761	403.56
383.986	399.56
384.211	424.56
384.436	402.56
384.662	437.56
384.887	410.56
385.112	399.56
385.337	414.56
385.562	432.56
385.787	433.56
386.013	434.56
386.238	441.56
386.463	404.56
386.688	430.56
386.913	435.56
387.138	440.56
387.363	432.56
387.588	416.56
387.813	410.56
388.038	419.56
388.263	424.56
388.488	433.56
388.713	422.56
388.938	415.56
389.163	412.56
389.387	415.56
389.612	418.56
389.837	416.56
390.062	408.56
390.287	417.56
390.512	420.56
390.736	417.56
390.961	426.56
391.186	424.56
391.411	431.56
391.636	418.56
391.86	428.56
392.085	439.56
392.31	416.56
392.534	416.56
392.759	450.56
392.984	422.56
393.208	415.56
393.433	426.56
393.658	428.56
393.882	419.56
394.107	412.56
394.331	407.56
394.556	424.56
394.78	422.56
395.005	426.56
395.229	431.56
395.454	422.56
395.678	439.56
395.903	442.56
396.127	461.56
396.352	467.56
396.576	443.56
396.801	404.56
397.025	441.56
397.249	433.56
397.474	435.56
397.698	439.56
397.922	468.56
398.147	467.56
398.371	495.56
398.595	455.56
398.82	475.56
399.044	489.56
399.268	488.56
399.492	486.56
399.717	505.56
399.941	525.56
400.165	583.56
400.389	588.56
400.613	558.56
400.837	517.56
401.062	482.56
401.286	500.56
401.51	482.56
401.734	483.56
401.958	475.56
402.182	488.56
402.406	499.56
402.63	510.56
402.854	471.56
403.078	483.56
403.302	497.56
403.526	495.56
403.75	496.56
403.974	502.56
404.198	486.56
404.422	510.56
404.645	525.56
404.869	530.56
405.093	571.56
405.317	587.56
405.541	648.56
405.765	568.56
405.988	536.56
406.212	538.56
406.436	561.56
406.66	558.56
406.883	538.56
407.107	560.56
407.331	593.56
407.555	667.56
407.778	661.56
408.002	610.56
408.226	579.56
408.449	543.56
408.673	566.56
408.896	569.56
409.12	642.56
409.344	598.56
409.567	543.56
409.791	496.56
410.014	511.56
410.238	499.56
410.461	495.56
410.685	491.56
410.908	513.56
411.132	555.56
411.355	585.56
411.578	569.56
411.802	506.56
412.025	495.56
412.249	532.56
412.472	527.56
412.695	606.56
412.919	588.56
413.142	538.56
413.365	516.56
413.589	516.56
413.812	487.56
414.035	488.56
414.258	471.56
414.482	478.56
414.705	491.56
414.928	464.56
415.151	474.56
415.374	466.56
415.597	464.56
415.821	468.56
416.044	481.56
416.267	485.56
416.49	471.56
416.713	467.56
416.936	459.56
417.159	469.56
417.382	464.56
417.605	459.56
417.828	491.56
418.051	524.56
418.274	490.56
418.497	487.56
418.72	473.56
418.943	457.56
419.166	513.56
419.389	491.56
419.611	511.56
419.834	491.56
420.057	494.56
420.28	528.56
420.503	529.56
420.726	528.56
420.948	531.56
421.171	553.56
421.394	554.56
421.617	549.56
421.839	494.56
422.062	493.56
422.285	514.56
422.507	567.56
422.73	630.56
422.953	617.56
423.175	545.56
423.398	512.56
423.621	529.56
423.843	537.56
424.066	525.56
424.288	526.56
424.511	548.56
424.733	606.56
424.956	680.56
425.178	679.56
425.401	665.56
425.623	688.56
425.846	614.56
426.068	550.56
426.291	527.56
426.513	541.56
426.735	558.56
426.958	582.56
427.18	651.56
427.402	826.56
427.625	889.56
427.847	802.56
428.069	726.56
428.292	636.56
428.514	550.56
428.736	513.56
428.958	514.56
429.181	485.56
429.403	474.56
429.625	478.56
429.847	540.56
430.069	601.56
430.292	603.56
430.514	499.56
430.736	475.56
430.958	483.56
431.18	463.56
431.402	466.56
431.624	452.56
431.846	447.56
432.068	469.56
432.29	471.56
432.512	455.56
432.734	469.56
432.956	446.56
433.178	464.56
433.4	489.56
433.622	452.56
433.844	447.56
434.066	464.56
434.287	458.56
434.509	446.56
434.731	484.56
434.953	481.56
435.175	487.56
435.397	528.56
435.618	544.56
435.84	610.56
436.062	678.56
436.284	742.56
436.505	624.56
436.727	576.56
436.949	508.56
437.17	518.56
437.392	495.56
437.614	516.56
437.835	544.56
438.057	674.56
438.278	762.56
438.5	747.56
438.721	811.56
438.943	786.56
439.165	625.56
439.386	581.56
439.608	566.56
439.829	554.56
440.05	613.56
440.272	627.56
440.493	606.56
440.715	550.56
440.936	498.56
441.158	486.56
441.379	515.56
441.6	523.56
441.822	554.56
442.043	582.56
442.264	682.56
442.486	720.56
442.707	598.56
442.928	561.56
443.149	574.56
443.371	576.56
443.592	626.56
443.813	722.56
444.034	794.56
444.255	635.56
444.476	555.56
444.698	534.56
444.919	544.56
445.14	661.56
445.361	623.56
445.582	579.56
445.803	639.56
446.024	750.56
446.245	778.56
446.466	689.56
446.687	593.56
446.908	547.56
447.129	508.56
447.35	496.56
447.571	499.56
447.792	499.56
448.013	498.56
448.234	552.56
448.455	586.56
448.675	694.56
448.896	806.56
449.117	688.56
449.338	644.56
449.559	734.56
449.779	862.56
450	679.56
450.221	572.56
450.442	519.56
450.662	506.56
450.883	516.56
451.104	520.56
451.324	513.56
451.545	484.56
451.766	463.56
451.986	443.56
452.207	447.56
452.428	468.56
452.648	432.56
452.869	435.56
453.089	434.56
453.31	461.56
453.53	462.56
453.751	438.56
453.971	456.56
454.192	470.56
454.412	450.56
454.633	430.56
454.853	460.56
455.073	451.56
455.294	488.56
455.514	545.56
455.734	507.56
455.955	470.56
456.175	437.56
456.395	426.56
456.616	408.56
456.836	415.56
457.056	415.56
457.276	404.56
457.497	427.56
457.717	420.56
457.937	443.56
458.157	447.56
458.377	431.56
458.598	443.56
458.818	534.56
459.038	601.56
459.258	646.56
459.478	529.56
459.698	483.56
459.918	477.56
460.138	426.56
460.358	457.56
460.578	439.56
460.798	446.56
461.018	449.56
461.238	460.56
461.458	463.56
461.678	432.56
461.898	451.56
462.118	461.56
462.338	466.56
462.558	459.56
462.777	471.56
462.997	463.56
463.217	480.56
463.437	489.56
463.657	489.56
463.876	482.56
464.096	486.56
464.316	492.56
464.536	469.56
464.755	474.56
464.975	487.56
465.195	550.56
465.414	626.56
465.634	558.56
465.854	534.56
466.073	465.56
466.293	450.56
466.512	453.56
466.732	433.56
466.951	452.56
467.171	454.56
467.391	435.56
467.61	449.56
467.829	474.56
468.049	478.56
468.268	496.56
468.488	468.56
468.707	444.56
468.927	434.56
469.146	420.56
469.365	435.56
469.585	422.56
469.804	452.56
470.023	449.56
470.243	456.56
470.462	455.56
470.681	481.56
470.901	481.56
471.12	452.56
471.339	457.56
471.558	442.56
471.777	451.56
471.997	448.56
472.216	463.56
472.435	538.56
472.654	544.56
472.873	458.56
473.092	473.56
473.311	450.56
473.53	449.56
473.749	475.56
473.968	517.56
474.187	634.56
474.406	654.56
474.625	546.56
474.844	486.56
475.063	471.56
475.282	477.56
475.501	471.56
475.72	450.56
475.939	478.56
476.158	466.56
476.377	468.56
476.596	461.56
476.814	476.56
477.033	488.56
477.252	463.56
477.471	485.56
477.69	474.56
477.908	473.56
478.127	484.56
478.346	494.56
478.564	502.56
478.783	504.56
479.002	512.56
479.22	511.56
479.439	531.56
479.658	548.56
479.876	534.56
480.095	547.56
480.313	570.56
480.532	581.56
480.751	563.56
480.969	585.56
481.188	721.56
481.406	795.56
481.624	672.56
481.843	603.56
482.061	567.56
482.28	549.56
482.498	555.56
482.717	549.56
482.935	542.56
483.153	537.56
483.372	540.56
483.59	553.56
483.808	550.56
484.027	546.56
484.245	529.56
484.463	532.56
484.681	552.56
484.9	551.56
485.118	568.56
485.336	536.56
485.554	542.56
485.772	549.56
485.99	542.56
486.209	553.56
486.427	548.56
486.645	589.56
486.863	588.56
487.081	570.56
487.299	569.56
487.517	592.56
487.735	580.56
487.953	570.56
488.171	586.56
488.389	558.56
488.607	575.56
488.825	599.56
489.043	580.56
489.261	619.56
489.479	592.56
489.696	582.56
489.914	583.56
490.132	600.56
490.35	632.56
490.568	615.56
490.786	616.56
491.003	648.56
491.221	634.56
491.439	651.56
491.657	668.56
491.874	669.56
492.092	679.56
492.31	676.56
492.527	670.56
492.745	666.56
492.963	708.56
493.18	676.56
493.398	669.56
493.615	681.56
493.833	696.56
494.05	686.56
494.268	702.56
494.485	694.56
494.703	730.56
494.92	721.56
495.138	705.56
495.355	692.56
495.573	700.56
495.79	716.56
496.008	712.56
496.225	694.56
496.442	699.56
496.66	691.56
496.877	688.56
497.094	683.56
497.312	697.56
497.529	699.56
497.746	704.56
497.963	720.56
498.181	739.56
498.398	722.56
498.615	751.56
498.832	739.56
499.049	777.56
499.267	784.56
499.484	794.56
499.701	808.56
499.918	836.56
500.135	842.56
500.352	884.56
500.569	884.56
500.786	922.56
501.003	871.56
501.22	873.56
501.437	849.56
501.654	852.56
501.871	867.56
