Data from 1989.PennyLincolnUp.Lamp.En5.5.200Scan.071819.P2_HRD10591_17-24-53-973.txt Node
Date: Thu Jul 18 17:24:53 EDT 2019
User: cochatt
Spectrometer: HR+D1059
Trigger mode: 1
Integration Time (sec): 1.000000E-1
Scans to average: 1
Electric dark correction enabled: true
Nonlinearity correction enabled: false
Boxcar width: 0
XAxis mode: Wavelengths
Number of Pixels in Spectrum: 2048
>>>>>Begin Spectral Data<<<<<
223.165	-12.88
223.4	-12.88
223.635	-12.88
223.869	-17.88
224.104	-18.88
224.338	-25.88
224.573	-13.88
224.808	-6.88
225.042	-9.88
225.277	-6.88
225.511	-2.88
225.746	1.12
225.98	11.12
226.215	6.12
226.449	12.12
226.683	24.12
226.918	29.12
227.152	32.12
227.387	22.12
227.621	30.12
227.856	45.12
228.09	51.12
228.324	48.12
228.559	50.12
228.793	67.12
229.027	102.12
229.262	105.12
229.496	127.12
229.73	125.12
229.964	156.12
230.199	124.12
230.433	106.12
230.667	118.12
230.901	130.12
231.136	99.12
231.37	116.12
231.604	119.12
231.838	118.12
232.072	122.12
232.306	132.12
232.541	112.12
232.775	116.12
233.009	122.12
233.243	119.12
233.477	115.12
233.711	123.12
233.945	125.12
234.179	120.12
234.413	122.12
234.647	124.12
234.881	132.12
235.115	127.12
235.349	129.12
235.583	126.12
235.817	129.12
236.051	152.12
236.285	128.12
236.519	125.12
236.753	129.12
236.987	144.12
237.221	189.12
237.455	253.12
237.689	194.12
237.922	147.12
238.156	120.12
238.39	136.12
238.624	140.12
238.858	137.12
239.091	151.12
239.325	123.12
239.559	124.12
239.793	135.12
240.027	140.12
240.26	149.12
240.494	168.12
240.728	186.12
240.961	152.12
241.195	153.12
241.429	139.12
241.662	140.12
241.896	134.12
242.13	142.12
242.363	131.12
242.597	138.12
242.83	129.12
243.064	134.12
243.298	136.12
243.531	150.12
243.765	155.12
243.998	147.12
244.232	152.12
244.465	152.12
244.699	153.12
244.932	154.12
245.166	166.12
245.399	141.12
245.633	165.12
245.866	151.12
246.099	157.12
246.333	163.12
246.566	148.12
246.8	168.12
247.033	155.12
247.266	157.12
247.5	179.12
247.733	182.12
247.966	181.12
248.2	172.12
248.433	179.12
248.666	183.12
248.899	188.12
249.133	204.12
249.366	231.12
249.599	223.12
249.832	212.12
250.066	193.12
250.299	190.12
250.532	219.12
250.765	203.12
250.998	235.12
251.231	258.12
251.465	246.12
251.698	215.12
251.931	205.12
252.164	222.12
252.397	189.12
252.63	202.12
252.863	233.12
253.096	258.12
253.329	256.12
253.562	248.12
253.795	241.12
254.028	223.12
254.261	241.12
254.494	266.12
254.727	285.12
254.96	307.12
255.193	298.12
255.426	284.12
255.659	249.12
255.892	243.12
256.124	234.12
256.357	236.12
256.59	245.12
256.823	231.12
257.056	223.12
257.289	236.12
257.521	225.12
257.754	236.12
257.987	225.12
258.22	209.12
258.452	236.12
258.685	236.12
258.918	232.12
259.151	224.12
259.383	254.12
259.616	259.12
259.849	247.12
260.081	259.12
260.314	276.12
260.547	279.12
260.779	256.12
261.012	268.12
261.244	258.12
261.477	258.12
261.71	221.12
261.942	248.12
262.175	257.12
262.407	269.12
262.64	228.12
262.872	238.12
263.105	233.12
263.337	229.12
263.57	225.12
263.802	243.12
264.035	217.12
264.267	227.12
264.499	242.12
264.732	229.12
264.964	228.12
265.197	229.12
265.429	226.12
265.661	229.12
265.894	223.12
266.126	223.12
266.358	231.12
266.591	225.12
266.823	241.12
267.055	252.12
267.287	247.12
267.52	262.12
267.752	249.12
267.984	226.12
268.216	234.12
268.448	248.12
268.681	256.12
268.913	257.12
269.145	275.12
269.377	295.12
269.609	299.12
269.841	296.12
270.073	276.12
270.306	306.12
270.538	349.12
270.77	353.12
271.002	332.12
271.234	328.12
271.466	319.12
271.698	336.12
271.93	346.12
272.162	329.12
272.394	344.12
272.626	328.12
272.858	314.12
273.09	313.12
273.322	283.12
273.553	293.12
273.785	290.12
274.017	284.12
274.249	282.12
274.481	280.12
274.713	283.12
274.945	288.12
275.176	290.12
275.408	300.12
275.64	305.12
275.872	272.12
276.104	283.12
276.335	307.12
276.567	285.12
276.799	297.12
277.031	306.12
277.262	356.12
277.494	344.12
277.726	325.12
277.957	308.12
278.189	290.12
278.421	301.12
278.652	300.12
278.884	282.12
279.115	279.12
279.347	268.12
279.579	277.12
279.81	289.12
280.042	289.12
280.273	272.12
280.505	278.12
280.736	275.12
280.968	270.12
281.199	285.12
281.431	294.12
281.662	281.12
281.894	285.12
282.125	298.12
282.356	291.12
282.588	340.12
282.819	329.12
283.051	295.12
283.282	301.12
283.513	282.12
283.745	290.12
283.976	310.12
284.207	291.12
284.439	311.12
284.67	280.12
284.901	296.12
285.132	294.12
285.364	298.12
285.595	290.12
285.826	293.12
286.057	277.12
286.288	284.12
286.52	286.12
286.751	282.12
286.982	308.12
287.213	309.12
287.444	300.12
287.675	321.12
287.906	312.12
288.138	322.12
288.369	321.12
288.6	305.12
288.831	297.12
289.062	312.12
289.293	312.12
289.524	297.12
289.755	289.12
289.986	317.12
290.217	310.12
290.448	305.12
290.679	287.12
290.91	298.12
291.141	308.12
291.371	304.12
291.602	300.12
291.833	307.12
292.064	297.12
292.295	296.12
292.526	288.12
292.757	321.12
292.987	312.12
293.218	295.12
293.449	315.12
293.68	300.12
293.91	296.12
294.141	284.12
294.372	304.12
294.603	307.12
294.833	310.12
295.064	297.12
295.295	298.12
295.525	301.12
295.756	329.12
295.987	336.12
296.217	350.12
296.448	375.12
296.679	322.12
296.909	328.12
297.14	329.12
297.37	340.12
297.601	310.12
297.831	304.12
298.062	315.12
298.292	300.12
298.523	317.12
298.753	329.12
298.984	304.12
299.214	312.12
299.445	314.12
299.675	308.12
299.905	329.12
300.136	316.12
300.366	321.12
300.597	332.12
300.827	327.12
301.057	350.12
301.288	338.12
301.518	340.12
301.748	328.12
301.979	341.12
302.209	338.12
302.439	342.12
302.669	348.12
302.9	340.12
303.13	332.12
303.36	327.12
303.59	342.12
303.82	357.12
304.051	352.12
304.281	335.12
304.511	345.12
304.741	337.12
304.971	334.12
305.201	342.12
305.431	356.12
305.661	344.12
305.891	314.12
306.121	361.12
306.352	379.12
306.582	363.12
306.812	337.12
307.042	337.12
307.272	348.12
307.502	353.12
307.731	353.12
307.961	344.12
308.191	350.12
308.421	345.12
308.651	360.12
308.881	357.12
309.111	356.12
309.341	349.12
309.571	372.12
309.8	371.12
310.03	421.12
310.26	402.12
310.49	384.12
310.72	402.12
310.949	416.12
311.179	428.12
311.409	410.12
311.639	408.12
311.868	408.12
312.098	402.12
312.328	409.12
312.557	433.12
312.787	449.12
313.017	449.12
313.246	412.12
313.476	417.12
313.706	410.12
313.935	423.12
314.165	419.12
314.394	428.12
314.624	397.12
314.853	417.12
315.083	406.12
315.312	407.12
315.542	406.12
315.771	390.12
316.001	406.12
316.23	388.12
316.46	390.12
316.689	395.12
316.919	415.12
317.148	416.12
317.377	430.12
317.607	414.12
317.836	405.12
318.065	412.12
318.295	395.12
318.524	388.12
318.753	408.12
318.983	400.12
319.212	407.12
319.441	412.12
319.67	412.12
319.9	404.12
320.129	398.12
320.358	392.12
320.587	429.12
320.816	424.12
321.046	404.12
321.275	407.12
321.504	449.12
321.733	440.12
321.962	429.12
322.191	453.12
322.42	472.12
322.649	476.12
322.878	513.12
323.108	514.12
323.337	525.12
323.566	546.12
323.795	589.12
324.024	659.12
324.253	807.12
324.482	1121.12
324.71	1736.12
324.939	2498.12
325.168	2173.12
325.397	1144.12
325.626	744.12
325.855	632.12
326.084	578.12
326.313	576.12
326.542	578.12
326.77	625.12
326.999	723.12
327.228	1020.12
327.457	1547.12
327.686	1906.12
327.914	1261.12
328.143	777.12
328.372	706.12
328.6	656.12
328.829	621.12
329.058	640.12
329.287	633.12
329.515	596.12
329.744	558.12
329.972	549.12
330.201	556.12
330.43	609.12
330.658	630.12
330.887	679.12
331.115	664.12
331.344	555.12
331.572	539.12
331.801	518.12
332.03	531.12
332.258	491.12
332.486	477.12
332.715	481.12
332.943	457.12
333.172	470.12
333.4	466.12
333.629	461.12
333.857	491.12
334.085	486.12
334.314	493.12
334.542	501.12
334.771	525.12
334.999	502.12
335.227	489.12
335.455	445.12
335.684	478.12
335.912	482.12
336.14	462.12
336.369	460.12
336.597	476.12
336.825	471.12
337.053	465.12
337.281	460.12
337.51	450.12
337.738	449.12
337.966	448.12
338.194	453.12
338.422	458.12
338.65	466.12
338.878	451.12
339.106	451.12
339.334	438.12
339.562	448.12
339.79	454.12
340.018	448.12
340.246	436.12
340.474	441.12
340.702	435.12
340.93	423.12
341.158	428.12
341.386	421.12
341.614	448.12
341.842	467.12
342.07	454.12
342.298	437.12
342.526	438.12
342.754	429.12
342.981	424.12
343.209	426.12
343.437	417.12
343.665	434.12
343.893	446.12
344.12	438.12
344.348	453.12
344.576	452.12
344.804	459.12
345.031	455.12
345.259	481.12
345.487	466.12
345.714	448.12
345.942	440.12
346.17	426.12
346.397	440.12
346.625	430.12
346.853	442.12
347.08	426.12
347.308	427.12
347.535	452.12
347.763	442.12
347.99	430.12
348.218	457.12
348.445	408.12
348.673	462.12
348.9	445.12
349.128	409.12
349.355	402.12
349.583	425.12
349.81	428.12
350.037	411.12
350.265	401.12
350.492	402.12
350.72	414.12
350.947	413.12
351.174	438.12
351.402	445.12
351.629	441.12
351.856	439.12
352.083	441.12
352.311	456.12
352.538	445.12
352.765	451.12
352.992	437.12
353.22	433.12
353.447	423.12
353.674	432.12
353.901	390.12
354.128	413.12
354.355	389.12
354.583	400.12
354.81	395.12
355.037	374.12
355.264	390.12
355.491	383.12
355.718	369.12
355.945	392.12
356.172	378.12
356.399	388.12
356.626	404.12
356.853	379.12
357.08	392.12
357.307	381.12
357.534	390.12
357.761	386.12
357.988	383.12
358.215	387.12
358.441	381.12
358.668	378.12
358.895	412.12
359.122	400.12
359.349	405.12
359.576	423.12
359.802	436.12
360.029	481.12
360.256	485.12
360.483	469.12
360.709	444.12
360.936	428.12
361.163	423.12
361.39	426.12
361.616	429.12
361.843	439.12
362.07	412.12
362.296	450.12
362.523	406.12
362.749	423.12
362.976	436.12
363.203	407.12
363.429	402.12
363.656	389.12
363.882	402.12
364.109	415.12
364.335	407.12
364.562	397.12
364.788	400.12
365.015	412.12
365.241	380.12
365.468	407.12
365.694	394.12
365.92	414.12
366.147	388.12
366.373	398.12
366.599	391.12
366.826	364.12
367.052	374.12
367.278	389.12
367.505	384.12
367.731	407.12
367.957	400.12
368.184	392.12
368.41	403.12
368.636	406.12
368.862	413.12
369.089	408.12
369.315	394.12
369.541	373.12
369.767	392.12
369.993	396.12
370.219	400.12
370.445	394.12
370.672	393.12
370.898	377.12
371.124	375.12
371.35	384.12
371.576	397.12
371.802	390.12
372.028	380.12
372.254	383.12
372.48	370.12
372.706	374.12
372.932	386.12
373.158	408.12
373.384	394.12
373.61	381.12
373.835	382.12
374.061	400.12
374.287	402.12
374.513	405.12
374.739	397.12
374.965	397.12
375.191	389.12
375.416	389.12
375.642	372.12
375.868	382.12
376.094	382.12
376.319	370.12
376.545	386.12
376.771	378.12
376.997	376.12
377.222	375.12
377.448	389.12
377.674	388.12
377.899	374.12
378.125	388.12
378.35	366.12
378.576	358.12
378.802	370.12
379.027	383.12
379.253	374.12
379.478	370.12
379.704	385.12
379.929	402.12
380.155	389.12
380.38	364.12
380.606	365.12
380.831	384.12
381.057	394.12
381.282	368.12
381.507	382.12
381.733	384.12
381.958	394.12
382.184	373.12
382.409	386.12
382.634	393.12
382.86	366.12
383.085	380.12
383.31	386.12
383.535	387.12
383.761	389.12
383.986	406.12
384.211	387.12
384.436	403.12
384.662	393.12
384.887	390.12
385.112	386.12
385.337	391.12
385.562	399.12
385.787	396.12
386.013	410.12
386.238	414.12
386.463	425.12
386.688	404.12
386.913	396.12
387.138	384.12
387.363	400.12
387.588	402.12
387.813	397.12
388.038	401.12
388.263	416.12
388.488	412.12
388.713	393.12
388.938	416.12
389.163	410.12
389.387	423.12
389.612	388.12
389.837	413.12
390.062	393.12
390.287	409.12
390.512	398.12
390.736	412.12
390.961	416.12
391.186	399.12
391.411	406.12
391.636	413.12
391.86	409.12
392.085	402.12
392.31	418.12
392.534	419.12
392.759	422.12
392.984	400.12
393.208	393.12
393.433	408.12
393.658	396.12
393.882	414.12
394.107	390.12
394.331	408.12
394.556	402.12
394.78	413.12
395.005	425.12
395.229	401.12
395.454	418.12
395.678	402.12
395.903	436.12
396.127	456.12
396.352	466.12
396.576	404.12
396.801	426.12
397.025	420.12
397.249	404.12
397.474	443.12
397.698	443.12
397.922	440.12
398.147	442.12
398.371	450.12
398.595	451.12
398.82	430.12
399.044	462.12
399.268	462.12
399.492	485.12
399.717	501.12
399.941	539.12
400.165	568.12
400.389	574.12
400.613	479.12
400.837	494.12
401.062	446.12
401.286	466.12
401.51	474.12
401.734	471.12
401.958	462.12
402.182	448.12
402.406	484.12
402.63	485.12
402.854	468.12
403.078	451.12
403.302	469.12
403.526	475.12
403.75	453.12
403.974	457.12
404.198	446.12
404.422	465.12
404.645	466.12
404.869	488.12
405.093	472.12
405.317	540.12
405.541	542.12
405.765	526.12
405.988	512.12
406.212	501.12
406.436	530.12
406.66	552.12
406.883	537.12
407.107	543.12
407.331	570.12
407.555	622.12
407.778	668.12
408.002	587.12
408.226	549.12
408.449	526.12
408.673	538.12
408.896	542.12
409.12	595.12
409.344	578.12
409.567	520.12
409.791	488.12
410.014	471.12
410.238	477.12
410.461	470.12
410.685	468.12
410.908	497.12
411.132	543.12
411.355	548.12
411.578	513.12
411.802	488.12
412.025	472.12
412.249	489.12
412.472	475.12
412.695	504.12
412.919	508.12
413.142	468.12
413.365	466.12
413.589	461.12
413.812	441.12
414.035	433.12
414.258	452.12
414.482	453.12
414.705	432.12
414.928	444.12
415.151	428.12
415.374	444.12
415.597	451.12
415.821	449.12
416.044	432.12
416.267	464.12
416.49	439.12
416.713	411.12
416.936	438.12
417.159	421.12
417.382	448.12
417.605	438.12
417.828	444.12
418.051	496.12
418.274	458.12
418.497	444.12
418.72	455.12
418.943	458.12
419.166	461.12
419.389	475.12
419.611	475.12
419.834	464.12
420.057	465.12
420.28	461.12
420.503	468.12
420.726	454.12
420.948	490.12
421.171	514.12
421.394	553.12
421.617	494.12
421.839	471.12
422.062	471.12
422.285	506.12
422.507	549.12
422.73	605.12
422.953	596.12
423.175	527.12
423.398	496.12
423.621	478.12
423.843	502.12
424.066	507.12
424.288	515.12
424.511	544.12
424.733	587.12
424.956	680.12
425.178	642.12
425.401	644.12
425.623	648.12
425.846	580.12
426.068	531.12
426.291	530.12
426.513	513.12
426.735	522.12
426.958	564.12
427.18	667.12
427.402	787.12
427.625	857.12
427.847	780.12
428.069	638.12
428.292	555.12
428.514	508.12
428.736	492.12
428.958	484.12
429.181	491.12
429.403	475.12
429.625	479.12
429.847	503.12
430.069	608.12
430.292	597.12
430.514	511.12
430.736	475.12
430.958	464.12
431.18	438.12
431.402	446.12
431.624	439.12
431.846	432.12
432.068	440.12
432.29	433.12
432.512	462.12
432.734	444.12
432.956	434.12
433.178	461.12
433.4	471.12
433.622	438.12
433.844	466.12
434.066	428.12
434.287	428.12
434.509	445.12
434.731	449.12
434.953	466.12
435.175	463.12
435.397	510.12
435.618	526.12
435.84	581.12
436.062	649.12
436.284	724.12
436.505	613.12
436.727	530.12
436.949	488.12
437.17	497.12
437.392	486.12
437.614	517.12
437.835	526.12
438.057	643.12
438.278	720.12
438.5	739.12
438.721	805.12
438.943	788.12
439.165	608.12
439.386	551.12
439.608	544.12
439.829	553.12
440.05	573.12
440.272	630.12
440.493	553.12
440.715	493.12
440.936	510.12
441.158	485.12
441.379	482.12
441.6	474.12
441.822	514.12
442.043	569.12
442.264	647.12
442.486	672.12
442.707	574.12
442.928	528.12
443.149	554.12
443.371	556.12
443.592	609.12
443.813	690.12
444.034	733.12
444.255	616.12
444.476	532.12
444.698	520.12
444.919	491.12
445.14	594.12
445.361	556.12
445.582	569.12
445.803	620.12
446.024	730.12
446.245	737.12
446.466	665.12
446.687	580.12
446.908	520.12
447.129	500.12
447.35	465.12
447.571	474.12
447.792	461.12
448.013	490.12
448.234	505.12
448.455	580.12
448.675	676.12
448.896	776.12
449.117	662.12
449.338	624.12
449.559	717.12
449.779	810.12
450	669.12
450.221	546.12
450.442	500.12
450.662	470.12
450.883	487.12
451.104	484.12
451.324	518.12
451.545	446.12
451.766	434.12
451.986	427.12
452.207	427.12
452.428	429.12
452.648	416.12
452.869	416.12
453.089	446.12
453.31	463.12
453.53	434.12
453.751	425.12
453.971	447.12
454.192	469.12
454.412	447.12
454.633	426.12
454.853	416.12
455.073	405.12
455.294	455.12
455.514	538.12
455.734	493.12
455.955	432.12
456.175	380.12
456.395	391.12
456.616	400.12
456.836	418.12
457.056	388.12
457.276	392.12
457.497	410.12
457.717	405.12
457.937	406.12
458.157	423.12
458.377	389.12
458.598	423.12
458.818	506.12
459.038	597.12
459.258	603.12
459.478	497.12
459.698	452.12
459.918	432.12
460.138	437.12
460.358	423.12
460.578	434.12
460.798	416.12
461.018	444.12
461.238	434.12
461.458	439.12
461.678	424.12
461.898	429.12
462.118	451.12
462.338	445.12
462.558	442.12
462.777	445.12
462.997	465.12
463.217	456.12
463.437	461.12
463.657	438.12
463.876	451.12
464.096	471.12
464.316	471.12
464.536	470.12
464.755	482.12
464.975	456.12
465.195	524.12
465.414	620.12
465.634	534.12
465.854	493.12
466.073	437.12
466.293	438.12
466.512	424.12
466.732	428.12
466.951	426.12
467.171	412.12
467.391	422.12
467.61	426.12
467.829	441.12
468.049	453.12
468.268	426.12
468.488	388.12
468.707	420.12
468.927	411.12
469.146	410.12
469.365	409.12
469.585	420.12
469.804	421.12
470.023	436.12
470.243	425.12
470.462	434.12
470.681	457.12
470.901	442.12
471.12	428.12
471.339	437.12
471.558	404.12
471.777	434.12
471.997	421.12
472.216	400.12
472.435	439.12
472.654	459.12
472.873	441.12
473.092	430.12
473.311	444.12
473.53	417.12
473.749	429.12
473.968	501.12
474.187	616.12
474.406	620.12
474.625	505.12
474.844	432.12
475.063	445.12
475.282	432.12
475.501	444.12
475.72	460.12
475.939	444.12
476.158	443.12
476.377	445.12
476.596	431.12
476.814	452.12
477.033	450.12
477.252	452.12
477.471	462.12
477.69	467.12
477.908	458.12
478.127	466.12
478.346	466.12
478.564	476.12
478.783	458.12
479.002	500.12
479.22	500.12
479.439	492.12
479.658	517.12
479.876	502.12
480.095	520.12
480.313	562.12
480.532	522.12
480.751	534.12
480.969	537.12
481.188	566.12
481.406	596.12
481.624	555.12
481.843	526.12
482.061	505.12
482.28	487.12
482.498	504.12
482.717	516.12
482.935	502.12
483.153	522.12
483.372	516.12
483.59	487.12
483.808	498.12
484.027	502.12
484.245	504.12
484.463	516.12
484.681	506.12
484.9	506.12
485.118	530.12
485.336	523.12
485.554	511.12
485.772	522.12
485.99	544.12
486.209	521.12
486.427	525.12
486.645	544.12
486.863	562.12
487.081	552.12
487.299	554.12
487.517	519.12
487.735	563.12
487.953	539.12
488.171	548.12
488.389	552.12
488.607	535.12
488.825	551.12
489.043	539.12
489.261	568.12
489.479	541.12
489.696	561.12
489.914	561.12
490.132	552.12
490.35	581.12
490.568	579.12
490.786	566.12
491.003	595.12
491.221	611.12
491.439	608.12
491.657	627.12
491.874	634.12
492.092	638.12
492.31	630.12
492.527	637.12
492.745	618.12
492.963	634.12
493.18	638.12
493.398	669.12
493.615	642.12
493.833	668.12
494.05	639.12
494.268	625.12
494.485	632.12
494.703	649.12
494.92	638.12
495.138	636.12
495.355	654.12
495.573	654.12
495.79	644.12
496.008	644.12
496.225	654.12
496.442	668.12
496.66	656.12
496.877	655.12
497.094	672.12
497.312	654.12
497.529	654.12
497.746	662.12
497.963	676.12
498.181	706.12
498.398	717.12
498.615	706.12
498.832	700.12
499.049	732.12
499.267	713.12
499.484	741.12
499.701	755.12
499.918	784.12
500.135	830.12
500.352	820.12
500.569	822.12
500.786	860.12
501.003	845.12
501.22	832.12
501.437	812.12
501.654	795.12
501.871	787.12
