Data from 1989.PennyLincolnUp.Lamp.En5.5.200Scan.071819.P2_HRD10591_17-23-41-973.txt Node
Date: Thu Jul 18 17:23:41 EDT 2019
User: cochatt
Spectrometer: HR+D1059
Trigger mode: 1
Integration Time (sec): 1.000000E-1
Scans to average: 1
Electric dark correction enabled: true
Nonlinearity correction enabled: false
Boxcar width: 0
XAxis mode: Wavelengths
Number of Pixels in Spectrum: 2048
>>>>>Begin Spectral Data<<<<<
223.165	-18.81
223.4	-18.81
223.635	-18.81
223.869	-35.81
224.104	-20.81
224.338	-11.81
224.573	-17.81
224.808	-0.81
225.042	-7.81
225.277	-5.81
225.511	-7.81
225.746	9.19
225.98	0.19
226.215	16.19
226.449	17.19
226.683	14.19
226.918	32.19
227.152	38.19
227.387	49.19
227.621	42.19
227.856	42.19
228.09	42.19
228.324	53.19
228.559	53.19
228.793	64.19
229.027	90.19
229.262	90.19
229.496	110.19
229.73	136.19
229.964	170.19
230.199	128.19
230.433	127.19
230.667	101.19
230.901	108.19
231.136	107.19
231.37	114.19
231.604	93.19
231.838	116.19
232.072	110.19
232.306	121.19
232.541	122.19
232.775	101.19
233.009	107.19
233.243	125.19
233.477	124.19
233.711	122.19
233.945	114.19
234.179	116.19
234.413	122.19
234.647	121.19
234.881	115.19
235.115	127.19
235.349	115.19
235.583	121.19
235.817	129.19
236.051	114.19
236.285	135.19
236.519	122.19
236.753	139.19
236.987	138.19
237.221	173.19
237.455	236.19
237.689	175.19
237.922	145.19
238.156	129.19
238.39	132.19
238.624	119.19
238.858	110.19
239.091	138.19
239.325	127.19
239.559	119.19
239.793	127.19
240.027	127.19
240.26	135.19
240.494	149.19
240.728	143.19
240.961	178.19
241.195	140.19
241.429	127.19
241.662	133.19
241.896	130.19
242.13	152.19
242.363	119.19
242.597	137.19
242.83	130.19
243.064	127.19
243.298	139.19
243.531	145.19
243.765	155.19
243.998	143.19
244.232	144.19
244.465	139.19
244.699	137.19
244.932	162.19
245.166	143.19
245.399	141.19
245.633	155.19
245.866	146.19
246.099	146.19
246.333	151.19
246.566	146.19
246.8	154.19
247.033	180.19
247.266	172.19
247.5	167.19
247.733	188.19
247.966	170.19
248.2	189.19
248.433	181.19
248.666	183.19
248.899	198.19
249.133	209.19
249.366	203.19
249.599	196.19
249.832	200.19
250.066	190.19
250.299	197.19
250.532	198.19
250.765	203.19
250.998	227.19
251.231	227.19
251.465	242.19
251.698	218.19
251.931	216.19
252.164	212.19
252.397	210.19
252.63	204.19
252.863	219.19
253.096	222.19
253.329	249.19
253.562	233.19
253.795	231.19
254.028	226.19
254.261	224.19
254.494	242.19
254.727	278.19
254.96	303.19
255.193	299.19
255.426	264.19
255.659	257.19
255.892	246.19
256.124	241.19
256.357	235.19
256.59	217.19
256.823	214.19
257.056	216.19
257.289	226.19
257.521	217.19
257.754	216.19
257.987	230.19
258.22	229.19
258.452	209.19
258.685	203.19
258.918	227.19
259.151	230.19
259.383	226.19
259.616	233.19
259.849	251.19
260.081	232.19
260.314	256.19
260.547	274.19
260.779	247.19
261.012	259.19
261.244	246.19
261.477	247.19
261.71	243.19
261.942	224.19
262.175	233.19
262.407	227.19
262.64	231.19
262.872	241.19
263.105	215.19
263.337	230.19
263.57	220.19
263.802	223.19
264.035	227.19
264.267	243.19
264.499	233.19
264.732	243.19
264.964	241.19
265.197	220.19
265.429	225.19
265.661	250.19
265.894	234.19
266.126	251.19
266.358	229.19
266.591	211.19
266.823	224.19
267.055	243.19
267.287	245.19
267.52	245.19
267.752	225.19
267.984	237.19
268.216	235.19
268.448	257.19
268.681	276.19
268.913	278.19
269.145	269.19
269.377	294.19
269.609	296.19
269.841	289.19
270.073	287.19
270.306	309.19
270.538	345.19
270.77	340.19
271.002	315.19
271.234	324.19
271.466	324.19
271.698	316.19
271.93	342.19
272.162	327.19
272.394	342.19
272.626	303.19
272.858	314.19
273.09	285.19
273.322	313.19
273.553	289.19
273.785	281.19
274.017	276.19
274.249	293.19
274.481	274.19
274.713	257.19
274.945	267.19
275.176	273.19
275.408	258.19
275.64	287.19
275.872	288.19
276.104	290.19
276.335	283.19
276.567	305.19
276.799	301.19
277.031	318.19
277.262	339.19
277.494	340.19
277.726	329.19
277.957	298.19
278.189	284.19
278.421	300.19
278.652	288.19
278.884	285.19
279.115	282.19
279.347	291.19
279.579	289.19
279.81	272.19
280.042	274.19
280.273	276.19
280.505	278.19
280.736	267.19
280.968	267.19
281.199	271.19
281.431	288.19
281.662	278.19
281.894	281.19
282.125	292.19
282.356	294.19
282.588	328.19
282.819	328.19
283.051	299.19
283.282	301.19
283.513	289.19
283.745	278.19
283.976	301.19
284.207	293.19
284.439	290.19
284.67	295.19
284.901	308.19
285.132	290.19
285.364	290.19
285.595	302.19
285.826	306.19
286.057	289.19
286.288	296.19
286.52	297.19
286.751	299.19
286.982	313.19
287.213	292.19
287.444	304.19
287.675	287.19
287.906	297.19
288.138	322.19
288.369	301.19
288.6	308.19
288.831	329.19
289.062	304.19
289.293	288.19
289.524	313.19
289.755	305.19
289.986	319.19
290.217	299.19
290.448	317.19
290.679	306.19
290.91	303.19
291.141	305.19
291.371	287.19
291.602	303.19
291.833	307.19
292.064	298.19
292.295	292.19
292.526	317.19
292.757	287.19
292.987	291.19
293.218	297.19
293.449	320.19
293.68	300.19
293.91	297.19
294.141	315.19
294.372	318.19
294.603	284.19
294.833	300.19
295.064	283.19
295.295	311.19
295.525	308.19
295.756	305.19
295.987	328.19
296.217	337.19
296.448	356.19
296.679	327.19
296.909	323.19
297.14	317.19
297.37	309.19
297.601	321.19
297.831	319.19
298.062	295.19
298.292	331.19
298.523	314.19
298.753	325.19
298.984	326.19
299.214	315.19
299.445	330.19
299.675	335.19
299.905	322.19
300.136	325.19
300.366	308.19
300.597	323.19
300.827	349.19
301.057	339.19
301.288	351.19
301.518	340.19
301.748	335.19
301.979	339.19
302.209	335.19
302.439	325.19
302.669	334.19
302.9	341.19
303.13	333.19
303.36	330.19
303.59	351.19
303.82	339.19
304.051	351.19
304.281	344.19
304.511	340.19
304.741	339.19
304.971	341.19
305.201	354.19
305.431	343.19
305.661	351.19
305.891	355.19
306.121	351.19
306.352	346.19
306.582	343.19
306.812	345.19
307.042	348.19
307.272	358.19
307.502	343.19
307.731	357.19
307.961	352.19
308.191	344.19
308.421	350.19
308.651	358.19
308.881	351.19
309.111	361.19
309.341	362.19
309.571	364.19
309.8	362.19
310.03	403.19
310.26	412.19
310.49	373.19
310.72	405.19
310.949	416.19
311.179	396.19
311.409	393.19
311.639	399.19
311.868	395.19
312.098	412.19
312.328	409.19
312.557	433.19
312.787	422.19
313.017	427.19
313.246	392.19
313.476	397.19
313.706	393.19
313.935	404.19
314.165	411.19
314.394	416.19
314.624	426.19
314.853	403.19
315.083	400.19
315.312	387.19
315.542	412.19
315.771	392.19
316.001	382.19
316.23	389.19
316.46	387.19
316.689	417.19
316.919	401.19
317.148	419.19
317.377	441.19
317.607	407.19
317.836	411.19
318.065	404.19
318.295	406.19
318.524	390.19
318.753	409.19
318.983	394.19
319.212	386.19
319.441	408.19
319.67	411.19
319.9	369.19
320.129	385.19
320.358	404.19
320.587	408.19
320.816	411.19
321.046	409.19
321.275	425.19
321.504	412.19
321.733	404.19
321.962	415.19
322.191	458.19
322.42	463.19
322.649	479.19
322.878	456.19
323.108	485.19
323.337	504.19
323.566	519.19
323.795	549.19
324.024	635.19
324.253	716.19
324.482	998.19
324.71	1553.19
324.939	2237.19
325.168	1934.19
325.397	976.19
325.626	697.19
325.855	577.19
326.084	555.19
326.313	519.19
326.542	532.19
326.77	575.19
326.999	669.19
327.228	940.19
327.457	1411.19
327.686	1714.19
327.914	1144.19
328.143	729.19
328.372	628.19
328.6	599.19
328.829	589.19
329.058	598.19
329.287	601.19
329.515	536.19
329.744	524.19
329.972	500.19
330.201	491.19
330.43	517.19
330.658	583.19
330.887	626.19
331.115	606.19
331.344	551.19
331.572	516.19
331.801	503.19
332.03	488.19
332.258	473.19
332.486	473.19
332.715	472.19
332.943	446.19
333.172	457.19
333.4	471.19
333.629	443.19
333.857	472.19
334.085	472.19
334.314	490.19
334.542	484.19
334.771	477.19
334.999	473.19
335.227	460.19
335.455	439.19
335.684	457.19
335.912	462.19
336.14	455.19
336.369	472.19
336.597	439.19
336.825	458.19
337.053	461.19
337.281	450.19
337.51	452.19
337.738	459.19
337.966	437.19
338.194	449.19
338.422	459.19
338.65	442.19
338.878	438.19
339.106	440.19
339.334	448.19
339.562	433.19
339.79	449.19
340.018	424.19
340.246	442.19
340.474	452.19
340.702	451.19
340.93	447.19
341.158	424.19
341.386	428.19
341.614	426.19
341.842	436.19
342.07	429.19
342.298	440.19
342.526	427.19
342.754	431.19
342.981	448.19
343.209	422.19
343.437	441.19
343.665	441.19
343.893	441.19
344.12	438.19
344.348	435.19
344.576	454.19
344.804	441.19
345.031	467.19
345.259	475.19
345.487	455.19
345.714	450.19
345.942	423.19
346.17	433.19
346.397	418.19
346.625	443.19
346.853	429.19
347.08	394.19
347.308	432.19
347.535	437.19
347.763	457.19
347.99	438.19
348.218	428.19
348.445	449.19
348.673	430.19
348.9	443.19
349.128	421.19
349.355	430.19
349.583	418.19
349.81	400.19
350.037	420.19
350.265	422.19
350.492	406.19
350.72	403.19
350.947	433.19
351.174	409.19
351.402	434.19
351.629	418.19
351.856	438.19
352.083	427.19
352.311	427.19
352.538	444.19
352.765	437.19
352.992	444.19
353.22	417.19
353.447	422.19
353.674	412.19
353.901	403.19
354.128	389.19
354.355	379.19
354.583	394.19
354.81	393.19
355.037	383.19
355.264	388.19
355.491	387.19
355.718	385.19
355.945	399.19
356.172	375.19
356.399	393.19
356.626	389.19
356.853	387.19
357.08	404.19
357.307	399.19
357.534	393.19
357.761	379.19
357.988	379.19
358.215	398.19
358.441	403.19
358.668	416.19
358.895	410.19
359.122	402.19
359.349	396.19
359.576	403.19
359.802	441.19
360.029	444.19
360.256	459.19
360.483	480.19
360.709	444.19
360.936	450.19
361.163	425.19
361.39	437.19
361.616	416.19
361.843	423.19
362.07	443.19
362.296	423.19
362.523	405.19
362.749	404.19
362.976	399.19
363.203	394.19
363.429	408.19
363.656	387.19
363.882	394.19
364.109	408.19
364.335	385.19
364.562	390.19
364.788	403.19
365.015	387.19
365.241	394.19
365.468	406.19
365.694	398.19
365.92	406.19
366.147	395.19
366.373	407.19
366.599	389.19
366.826	383.19
367.052	386.19
367.278	380.19
367.505	382.19
367.731	400.19
367.957	402.19
368.184	399.19
368.41	383.19
368.636	416.19
368.862	423.19
369.089	404.19
369.315	389.19
369.541	385.19
369.767	410.19
369.993	419.19
370.219	395.19
370.445	401.19
370.672	380.19
370.898	395.19
371.124	365.19
371.35	381.19
371.576	379.19
371.802	382.19
372.028	391.19
372.254	407.19
372.48	393.19
372.706	403.19
372.932	377.19
373.158	402.19
373.384	407.19
373.61	383.19
373.835	383.19
374.061	376.19
374.287	397.19
374.513	372.19
374.739	388.19
374.965	396.19
375.191	393.19
375.416	389.19
375.642	396.19
375.868	408.19
376.094	401.19
376.319	399.19
376.545	364.19
376.771	373.19
376.997	388.19
377.222	379.19
377.448	378.19
377.674	379.19
377.899	377.19
378.125	376.19
378.35	402.19
378.576	383.19
378.802	384.19
379.027	378.19
379.253	376.19
379.478	399.19
379.704	395.19
379.929	385.19
380.155	377.19
380.38	394.19
380.606	384.19
380.831	398.19
381.057	397.19
381.282	393.19
381.507	388.19
381.733	399.19
381.958	375.19
382.184	397.19
382.409	391.19
382.634	414.19
382.86	405.19
383.085	386.19
383.31	393.19
383.535	396.19
383.761	386.19
383.986	411.19
384.211	416.19
384.436	407.19
384.662	403.19
384.887	409.19
385.112	414.19
385.337	405.19
385.562	410.19
385.787	409.19
386.013	436.19
386.238	401.19
386.463	440.19
386.688	424.19
386.913	403.19
387.138	397.19
387.363	430.19
387.588	389.19
387.813	417.19
388.038	423.19
388.263	422.19
388.488	419.19
388.713	420.19
388.938	407.19
389.163	404.19
389.387	397.19
389.612	411.19
389.837	425.19
390.062	416.19
390.287	408.19
390.512	419.19
390.736	423.19
390.961	404.19
391.186	403.19
391.411	408.19
391.636	411.19
391.86	422.19
392.085	407.19
392.31	412.19
392.534	421.19
392.759	420.19
392.984	393.19
393.208	398.19
393.433	417.19
393.658	408.19
393.882	405.19
394.107	391.19
394.331	419.19
394.556	395.19
394.78	392.19
395.005	416.19
395.229	415.19
395.454	424.19
395.678	433.19
395.903	444.19
396.127	459.19
396.352	468.19
396.576	428.19
396.801	443.19
397.025	439.19
397.249	418.19
397.474	421.19
397.698	424.19
397.922	449.19
398.147	475.19
398.371	479.19
398.595	466.19
398.82	452.19
399.044	478.19
399.268	497.19
399.492	516.19
399.717	503.19
399.941	537.19
400.165	555.19
400.389	589.19
400.613	567.19
400.837	513.19
401.062	472.19
401.286	465.19
401.51	461.19
401.734	452.19
401.958	479.19
402.182	463.19
402.406	479.19
402.63	483.19
402.854	492.19
403.078	465.19
403.302	463.19
403.526	477.19
403.75	466.19
403.974	481.19
404.198	474.19
404.422	484.19
404.645	461.19
404.869	472.19
405.093	517.19
405.317	513.19
405.541	561.19
405.765	511.19
405.988	521.19
406.212	533.19
406.436	534.19
406.66	542.19
406.883	528.19
407.107	547.19
407.331	583.19
407.555	637.19
407.778	645.19
408.002	580.19
408.226	527.19
408.449	528.19
408.673	536.19
408.896	547.19
409.12	608.19
409.344	561.19
409.567	501.19
409.791	479.19
410.014	484.19
410.238	491.19
410.461	481.19
410.685	489.19
410.908	499.19
411.132	533.19
411.355	580.19
411.578	523.19
411.802	487.19
412.025	481.19
412.249	472.19
412.472	460.19
412.695	481.19
412.919	461.19
413.142	472.19
413.365	447.19
413.589	452.19
413.812	448.19
414.035	458.19
414.258	439.19
414.482	464.19
414.705	450.19
414.928	463.19
415.151	442.19
415.374	457.19
415.597	451.19
415.821	447.19
416.044	451.19
416.267	449.19
416.49	452.19
416.713	443.19
416.936	427.19
417.159	452.19
417.382	444.19
417.605	469.19
417.828	466.19
418.051	487.19
418.274	465.19
418.497	447.19
418.72	452.19
418.943	452.19
419.166	462.19
419.389	482.19
419.611	491.19
419.834	472.19
420.057	478.19
420.28	441.19
420.503	468.19
420.726	476.19
420.948	471.19
421.171	524.19
421.394	553.19
421.617	512.19
421.839	482.19
422.062	489.19
422.285	473.19
422.507	549.19
422.73	645.19
422.953	633.19
423.175	543.19
423.398	515.19
423.621	478.19
423.843	513.19
424.066	518.19
424.288	515.19
424.511	530.19
424.733	578.19
424.956	680.19
425.178	652.19
425.401	654.19
425.623	669.19
425.846	584.19
426.068	523.19
426.291	526.19
426.513	515.19
426.735	544.19
426.958	567.19
427.18	641.19
427.402	764.19
427.625	852.19
427.847	746.19
428.069	612.19
428.292	551.19
428.514	516.19
428.736	496.19
428.958	488.19
429.181	466.19
429.403	491.19
429.625	501.19
429.847	525.19
430.069	580.19
430.292	584.19
430.514	511.19
430.736	483.19
430.958	485.19
431.18	437.19
431.402	455.19
431.624	438.19
431.846	444.19
432.068	436.19
432.29	438.19
432.512	455.19
432.734	471.19
432.956	440.19
433.178	469.19
433.4	461.19
433.622	471.19
433.844	461.19
434.066	467.19
434.287	441.19
434.509	453.19
434.731	458.19
434.953	447.19
435.175	487.19
435.397	499.19
435.618	517.19
435.84	556.19
436.062	639.19
436.284	740.19
436.505	595.19
436.727	540.19
436.949	513.19
437.17	469.19
437.392	477.19
437.614	512.19
437.835	522.19
438.057	611.19
438.278	735.19
438.5	729.19
438.721	786.19
438.943	756.19
439.165	604.19
439.386	553.19
439.608	529.19
439.829	528.19
440.05	581.19
440.272	609.19
440.493	578.19
440.715	518.19
440.936	490.19
441.158	477.19
441.379	475.19
441.6	504.19
441.822	525.19
442.043	540.19
442.264	651.19
442.486	683.19
442.707	557.19
442.928	548.19
443.149	552.19
443.371	563.19
443.592	586.19
443.813	712.19
444.034	768.19
444.255	607.19
444.476	513.19
444.698	514.19
444.919	534.19
445.14	606.19
445.361	580.19
445.582	562.19
445.803	639.19
446.024	697.19
446.245	724.19
446.466	673.19
446.687	558.19
446.908	523.19
447.129	487.19
447.35	494.19
447.571	480.19
447.792	476.19
448.013	448.19
448.234	495.19
448.455	539.19
448.675	681.19
448.896	767.19
449.117	643.19
449.338	620.19
449.559	698.19
449.779	807.19
450	641.19
450.221	554.19
450.442	498.19
450.662	485.19
450.883	480.19
451.104	471.19
451.324	468.19
451.545	453.19
451.766	447.19
451.986	436.19
452.207	443.19
452.428	437.19
452.648	423.19
452.869	441.19
453.089	423.19
453.31	453.19
453.53	458.19
453.751	425.19
453.971	410.19
454.192	452.19
454.412	431.19
454.633	414.19
454.853	426.19
455.073	418.19
455.294	458.19
455.514	514.19
455.734	505.19
455.955	431.19
456.175	402.19
456.395	408.19
456.616	395.19
456.836	394.19
457.056	398.19
457.276	379.19
457.497	413.19
457.717	409.19
457.937	406.19
458.157	400.19
458.377	401.19
458.598	440.19
458.818	480.19
459.038	579.19
459.258	569.19
459.478	487.19
459.698	459.19
459.918	433.19
460.138	440.19
460.358	440.19
460.578	453.19
460.798	456.19
461.018	451.19
461.238	437.19
461.458	436.19
461.678	439.19
461.898	444.19
462.118	429.19
462.338	423.19
462.558	445.19
462.777	466.19
462.997	453.19
463.217	481.19
463.437	480.19
463.657	465.19
463.876	470.19
464.096	458.19
464.316	471.19
464.536	491.19
464.755	460.19
464.975	471.19
465.195	513.19
465.414	585.19
465.634	524.19
465.854	473.19
466.073	464.19
466.293	436.19
466.512	442.19
466.732	418.19
466.951	420.19
467.171	433.19
467.391	428.19
467.61	445.19
467.829	441.19
468.049	446.19
468.268	429.19
468.488	426.19
468.707	403.19
468.927	409.19
469.146	392.19
469.365	418.19
469.585	414.19
469.804	428.19
470.023	441.19
470.243	414.19
470.462	451.19
470.681	451.19
470.901	454.19
471.12	436.19
471.339	445.19
471.558	449.19
471.777	444.19
471.997	420.19
472.216	424.19
472.435	429.19
472.654	437.19
472.873	429.19
473.092	421.19
473.311	422.19
473.53	403.19
473.749	447.19
473.968	491.19
474.187	583.19
474.406	624.19
474.625	512.19
474.844	458.19
475.063	441.19
475.282	437.19
475.501	455.19
475.72	451.19
475.939	451.19
476.158	457.19
476.377	468.19
476.596	439.19
476.814	451.19
477.033	463.19
477.252	444.19
477.471	445.19
477.69	469.19
477.908	456.19
478.127	449.19
478.346	477.19
478.564	475.19
478.783	484.19
479.002	492.19
479.22	461.19
479.439	519.19
479.658	513.19
479.876	517.19
480.095	522.19
480.313	535.19
480.532	543.19
480.751	533.19
480.969	545.19
481.188	564.19
481.406	538.19
481.624	520.19
481.843	492.19
482.061	510.19
482.28	523.19
482.498	482.19
482.717	509.19
482.935	500.19
483.153	484.19
483.372	507.19
483.59	511.19
483.808	526.19
484.027	504.19
484.245	523.19
484.463	510.19
484.681	522.19
484.9	543.19
485.118	538.19
485.336	503.19
485.554	512.19
485.772	524.19
485.99	535.19
486.209	509.19
486.427	540.19
486.645	552.19
486.863	538.19
487.081	555.19
487.299	565.19
487.517	561.19
487.735	555.19
487.953	539.19
488.171	533.19
488.389	554.19
488.607	562.19
488.825	548.19
489.043	583.19
489.261	557.19
489.479	575.19
489.696	546.19
489.914	560.19
490.132	585.19
490.35	571.19
490.568	562.19
490.786	593.19
491.003	578.19
491.221	591.19
491.439	602.19
491.657	607.19
491.874	632.19
492.092	610.19
492.31	633.19
492.527	613.19
492.745	626.19
492.963	648.19
493.18	617.19
493.398	610.19
493.615	612.19
493.833	645.19
494.05	655.19
494.268	627.19
494.485	661.19
494.703	643.19
494.92	640.19
495.138	657.19
495.355	641.19
495.573	646.19
495.79	665.19
496.008	666.19
496.225	664.19
496.442	658.19
496.66	633.19
496.877	672.19
497.094	668.19
497.312	656.19
497.529	705.19
497.746	658.19
497.963	680.19
498.181	695.19
498.398	682.19
498.615	703.19
498.832	731.19
499.049	733.19
499.267	708.19
499.484	740.19
499.701	807.19
499.918	805.19
500.135	841.19
500.352	845.19
500.569	869.19
500.786	873.19
501.003	859.19
501.22	841.19
501.437	796.19
501.654	822.19
501.871	803.19
