Data from 1989.PennyLincolnUp.Lamp.En5.5.200Scan.071819.P2_HRD10591_17-25-26-973.txt Node
Date: Thu Jul 18 17:25:26 EDT 2019
User: cochatt
Spectrometer: HR+D1059
Trigger mode: 1
Integration Time (sec): 1.000000E-1
Scans to average: 1
Electric dark correction enabled: true
Nonlinearity correction enabled: false
Boxcar width: 0
XAxis mode: Wavelengths
Number of Pixels in Spectrum: 2048
>>>>>Begin Spectral Data<<<<<
223.165	-14.75
223.4	-14.75
223.635	-14.75
223.869	-20.75
224.104	-7.75
224.338	-13.75
224.573	-24.75
224.808	-1.75
225.042	-14.75
225.277	-8.75
225.511	-11.75
225.746	8.25
225.98	16.25
226.215	16.25
226.449	17.25
226.683	19.25
226.918	21.25
227.152	20.25
227.387	48.25
227.621	37.25
227.856	50.25
228.09	48.25
228.324	48.25
228.559	75.25
228.793	74.25
229.027	97.25
229.262	126.25
229.496	118.25
229.73	139.25
229.964	161.25
230.199	141.25
230.433	122.25
230.667	112.25
230.901	110.25
231.136	114.25
231.37	108.25
231.604	117.25
231.838	128.25
232.072	114.25
232.306	109.25
232.541	124.25
232.775	124.25
233.009	121.25
233.243	117.25
233.477	125.25
233.711	127.25
233.945	116.25
234.179	91.25
234.413	114.25
234.647	115.25
234.881	116.25
235.115	140.25
235.349	138.25
235.583	115.25
235.817	134.25
236.051	138.25
236.285	128.25
236.519	118.25
236.753	126.25
236.987	162.25
237.221	205.25
237.455	260.25
237.689	216.25
237.922	150.25
238.156	142.25
238.39	141.25
238.624	130.25
238.858	132.25
239.091	124.25
239.325	132.25
239.559	126.25
239.793	122.25
240.027	151.25
240.26	141.25
240.494	163.25
240.728	162.25
240.961	159.25
241.195	152.25
241.429	155.25
241.662	134.25
241.896	160.25
242.13	138.25
242.363	131.25
242.597	139.25
242.83	141.25
243.064	153.25
243.298	158.25
243.531	146.25
243.765	144.25
243.998	150.25
244.232	158.25
244.465	134.25
244.699	167.25
244.932	164.25
245.166	165.25
245.399	155.25
245.633	149.25
245.866	150.25
246.099	163.25
246.333	152.25
246.566	150.25
246.8	150.25
247.033	169.25
247.266	167.25
247.5	187.25
247.733	170.25
247.966	179.25
248.2	180.25
248.433	178.25
248.666	196.25
248.899	191.25
249.133	198.25
249.366	222.25
249.599	232.25
249.832	201.25
250.066	198.25
250.299	202.25
250.532	191.25
250.765	236.25
250.998	240.25
251.231	263.25
251.465	243.25
251.698	236.25
251.931	223.25
252.164	208.25
252.397	207.25
252.63	230.25
252.863	224.25
253.096	235.25
253.329	228.25
253.562	248.25
253.795	255.25
254.028	242.25
254.261	236.25
254.494	239.25
254.727	280.25
254.96	318.25
255.193	310.25
255.426	267.25
255.659	267.25
255.892	249.25
256.124	249.25
256.357	259.25
256.59	249.25
256.823	231.25
257.056	237.25
257.289	233.25
257.521	236.25
257.754	232.25
257.987	227.25
258.22	240.25
258.452	236.25
258.685	247.25
258.918	226.25
259.151	230.25
259.383	251.25
259.616	238.25
259.849	251.25
260.081	255.25
260.314	283.25
260.547	272.25
260.779	284.25
261.012	258.25
261.244	251.25
261.477	263.25
261.71	245.25
261.942	250.25
262.175	266.25
262.407	247.25
262.64	251.25
262.872	257.25
263.105	250.25
263.337	219.25
263.57	225.25
263.802	237.25
264.035	226.25
264.267	239.25
264.499	236.25
264.732	230.25
264.964	242.25
265.197	229.25
265.429	237.25
265.661	226.25
265.894	225.25
266.126	235.25
266.358	249.25
266.591	236.25
266.823	233.25
267.055	232.25
267.287	270.25
267.52	244.25
267.752	252.25
267.984	261.25
268.216	258.25
268.448	251.25
268.681	254.25
268.913	260.25
269.145	302.25
269.377	308.25
269.609	307.25
269.841	272.25
270.073	302.25
270.306	327.25
270.538	346.25
270.77	333.25
271.002	328.25
271.234	328.25
271.466	314.25
271.698	329.25
271.93	352.25
272.162	359.25
272.394	337.25
272.626	336.25
272.858	320.25
273.09	319.25
273.322	288.25
273.553	277.25
273.785	286.25
274.017	296.25
274.249	278.25
274.481	286.25
274.713	279.25
274.945	308.25
275.176	289.25
275.408	286.25
275.64	299.25
275.872	290.25
276.104	283.25
276.335	281.25
276.567	290.25
276.799	318.25
277.031	336.25
277.262	365.25
277.494	354.25
277.726	333.25
277.957	327.25
278.189	298.25
278.421	293.25
278.652	303.25
278.884	297.25
279.115	296.25
279.347	314.25
279.579	303.25
279.81	288.25
280.042	304.25
280.273	299.25
280.505	294.25
280.736	286.25
280.968	284.25
281.199	271.25
281.431	295.25
281.662	284.25
281.894	288.25
282.125	300.25
282.356	312.25
282.588	312.25
282.819	331.25
283.051	280.25
283.282	307.25
283.513	309.25
283.745	314.25
283.976	310.25
284.207	305.25
284.439	311.25
284.67	299.25
284.901	309.25
285.132	288.25
285.364	284.25
285.595	302.25
285.826	298.25
286.057	299.25
286.288	293.25
286.52	285.25
286.751	292.25
286.982	304.25
287.213	306.25
287.444	303.25
287.675	324.25
287.906	329.25
288.138	348.25
288.369	317.25
288.6	302.25
288.831	335.25
289.062	313.25
289.293	299.25
289.524	305.25
289.755	320.25
289.986	289.25
290.217	291.25
290.448	302.25
290.679	307.25
290.91	299.25
291.141	314.25
291.371	292.25
291.602	307.25
291.833	309.25
292.064	309.25
292.295	315.25
292.526	309.25
292.757	314.25
292.987	304.25
293.218	323.25
293.449	312.25
293.68	309.25
293.91	299.25
294.141	306.25
294.372	308.25
294.603	318.25
294.833	311.25
295.064	319.25
295.295	336.25
295.525	310.25
295.756	314.25
295.987	319.25
296.217	365.25
296.448	364.25
296.679	313.25
296.909	321.25
297.14	315.25
297.37	329.25
297.601	326.25
297.831	316.25
298.062	299.25
298.292	314.25
298.523	317.25
298.753	333.25
298.984	313.25
299.214	317.25
299.445	326.25
299.675	322.25
299.905	331.25
300.136	303.25
300.366	328.25
300.597	323.25
300.827	341.25
301.057	325.25
301.288	327.25
301.518	347.25
301.748	339.25
301.979	326.25
302.209	362.25
302.439	363.25
302.669	346.25
302.9	342.25
303.13	346.25
303.36	346.25
303.59	354.25
303.82	360.25
304.051	352.25
304.281	352.25
304.511	320.25
304.741	353.25
304.971	344.25
305.201	340.25
305.431	351.25
305.661	336.25
305.891	342.25
306.121	348.25
306.352	338.25
306.582	351.25
306.812	361.25
307.042	346.25
307.272	332.25
307.502	335.25
307.731	347.25
307.961	351.25
308.191	337.25
308.421	351.25
308.651	343.25
308.881	346.25
309.111	363.25
309.341	363.25
309.571	387.25
309.8	392.25
310.03	395.25
310.26	399.25
310.49	414.25
310.72	398.25
310.949	429.25
311.179	412.25
311.409	420.25
311.639	413.25
311.868	419.25
312.098	406.25
312.328	401.25
312.557	420.25
312.787	448.25
313.017	446.25
313.246	415.25
313.476	403.25
313.706	404.25
313.935	425.25
314.165	426.25
314.394	423.25
314.624	421.25
314.853	393.25
315.083	401.25
315.312	412.25
315.542	385.25
315.771	384.25
316.001	402.25
316.23	378.25
316.46	381.25
316.689	405.25
316.919	409.25
317.148	423.25
317.377	396.25
317.607	408.25
317.836	384.25
318.065	406.25
318.295	395.25
318.524	389.25
318.753	384.25
318.983	389.25
319.212	392.25
319.441	412.25
319.67	438.25
319.9	406.25
320.129	422.25
320.358	401.25
320.587	412.25
320.816	417.25
321.046	422.25
321.275	444.25
321.504	404.25
321.733	410.25
321.962	444.25
322.191	458.25
322.42	466.25
322.649	485.25
322.878	483.25
323.108	506.25
323.337	526.25
323.566	564.25
323.795	579.25
324.024	636.25
324.253	786.25
324.482	1122.25
324.71	1765.25
324.939	2472.25
325.168	2132.25
325.397	1126.25
325.626	747.25
325.855	618.25
326.084	589.25
326.313	557.25
326.542	565.25
326.77	624.25
326.999	735.25
327.228	1020.25
327.457	1495.25
327.686	1807.25
327.914	1243.25
328.143	824.25
328.372	709.25
328.6	668.25
328.829	635.25
329.058	631.25
329.287	656.25
329.515	596.25
329.744	559.25
329.972	563.25
330.201	599.25
330.43	647.25
330.658	634.25
330.887	662.25
331.115	640.25
331.344	557.25
331.572	543.25
331.801	558.25
332.03	523.25
332.258	501.25
332.486	502.25
332.715	468.25
332.943	474.25
333.172	471.25
333.4	465.25
333.629	507.25
333.857	501.25
334.085	532.25
334.314	549.25
334.542	584.25
334.771	604.25
334.999	517.25
335.227	488.25
335.455	478.25
335.684	482.25
335.912	484.25
336.14	475.25
336.369	469.25
336.597	471.25
336.825	456.25
337.053	462.25
337.281	456.25
337.51	475.25
337.738	458.25
337.966	460.25
338.194	459.25
338.422	479.25
338.65	456.25
338.878	457.25
339.106	448.25
339.334	441.25
339.562	439.25
339.79	435.25
340.018	428.25
340.246	434.25
340.474	438.25
340.702	462.25
340.93	425.25
341.158	428.25
341.386	432.25
341.614	440.25
341.842	443.25
342.07	451.25
342.298	410.25
342.526	446.25
342.754	423.25
342.981	425.25
343.209	435.25
343.437	437.25
343.665	430.25
343.893	451.25
344.12	455.25
344.348	435.25
344.576	448.25
344.804	443.25
345.031	470.25
345.259	448.25
345.487	450.25
345.714	444.25
345.942	450.25
346.17	430.25
346.397	430.25
346.625	447.25
346.853	447.25
347.08	419.25
347.308	435.25
347.535	439.25
347.763	429.25
347.99	424.25
348.218	430.25
348.445	427.25
348.673	440.25
348.9	424.25
349.128	432.25
349.355	415.25
349.583	402.25
349.81	427.25
350.037	395.25
350.265	408.25
350.492	426.25
350.72	396.25
350.947	423.25
351.174	438.25
351.402	434.25
351.629	446.25
351.856	426.25
352.083	450.25
352.311	452.25
352.538	453.25
352.765	448.25
352.992	440.25
353.22	430.25
353.447	439.25
353.674	425.25
353.901	407.25
354.128	436.25
354.355	395.25
354.583	405.25
354.81	391.25
355.037	406.25
355.264	401.25
355.491	371.25
355.718	391.25
355.945	379.25
356.172	359.25
356.399	404.25
356.626	370.25
356.853	387.25
357.08	388.25
357.307	399.25
357.534	390.25
357.761	386.25
357.988	404.25
358.215	385.25
358.441	398.25
358.668	403.25
358.895	414.25
359.122	404.25
359.349	392.25
359.576	422.25
359.802	434.25
360.029	471.25
360.256	493.25
360.483	470.25
360.709	427.25
360.936	424.25
361.163	438.25
361.39	417.25
361.616	451.25
361.843	417.25
362.07	432.25
362.296	424.25
362.523	431.25
362.749	426.25
362.976	427.25
363.203	414.25
363.429	402.25
363.656	390.25
363.882	401.25
364.109	414.25
364.335	415.25
364.562	388.25
364.788	393.25
365.015	400.25
365.241	390.25
365.468	415.25
365.694	404.25
365.92	425.25
366.147	392.25
366.373	406.25
366.599	393.25
366.826	378.25
367.052	379.25
367.278	390.25
367.505	407.25
367.731	383.25
367.957	372.25
368.184	386.25
368.41	388.25
368.636	397.25
368.862	404.25
369.089	410.25
369.315	408.25
369.541	395.25
369.767	387.25
369.993	365.25
370.219	394.25
370.445	380.25
370.672	377.25
370.898	385.25
371.124	398.25
371.35	393.25
371.576	386.25
371.802	393.25
372.028	383.25
372.254	384.25
372.48	391.25
372.706	421.25
372.932	400.25
373.158	391.25
373.384	410.25
373.61	381.25
373.835	407.25
374.061	392.25
374.287	379.25
374.513	403.25
374.739	400.25
374.965	388.25
375.191	404.25
375.416	398.25
375.642	396.25
375.868	356.25
376.094	389.25
376.319	392.25
376.545	404.25
376.771	401.25
376.997	393.25
377.222	387.25
377.448	387.25
377.674	383.25
377.899	373.25
378.125	364.25
378.35	384.25
378.576	388.25
378.802	359.25
379.027	378.25
379.253	362.25
379.478	382.25
379.704	358.25
379.929	382.25
380.155	375.25
380.38	379.25
380.606	388.25
380.831	401.25
381.057	378.25
381.282	376.25
381.507	392.25
381.733	383.25
381.958	376.25
382.184	384.25
382.409	379.25
382.634	395.25
382.86	388.25
383.085	394.25
383.31	394.25
383.535	385.25
383.761	387.25
383.986	378.25
384.211	406.25
384.436	413.25
384.662	413.25
384.887	390.25
385.112	402.25
385.337	382.25
385.562	423.25
385.787	400.25
386.013	394.25
386.238	419.25
386.463	435.25
386.688	410.25
386.913	412.25
387.138	407.25
387.363	409.25
387.588	389.25
387.813	404.25
388.038	388.25
388.263	383.25
388.488	388.25
388.713	397.25
388.938	424.25
389.163	416.25
389.387	426.25
389.612	389.25
389.837	419.25
390.062	424.25
390.287	382.25
390.512	405.25
390.736	406.25
390.961	399.25
391.186	402.25
391.411	399.25
391.636	403.25
391.86	432.25
392.085	425.25
392.31	408.25
392.534	424.25
392.759	408.25
392.984	430.25
393.208	426.25
393.433	415.25
393.658	401.25
393.882	386.25
394.107	397.25
394.331	420.25
394.556	394.25
394.78	402.25
395.005	400.25
395.229	399.25
395.454	404.25
395.678	414.25
395.903	428.25
396.127	447.25
396.352	456.25
396.576	419.25
396.801	405.25
397.025	405.25
397.249	418.25
397.474	439.25
397.698	426.25
397.922	434.25
398.147	432.25
398.371	461.25
398.595	447.25
398.82	437.25
399.044	445.25
399.268	465.25
399.492	492.25
399.717	502.25
399.941	528.25
400.165	556.25
400.389	566.25
400.613	526.25
400.837	490.25
401.062	465.25
401.286	458.25
401.51	470.25
401.734	444.25
401.958	447.25
402.182	480.25
402.406	459.25
402.63	466.25
402.854	470.25
403.078	452.25
403.302	464.25
403.526	485.25
403.75	486.25
403.974	459.25
404.198	485.25
404.422	490.25
404.645	491.25
404.869	490.25
405.093	517.25
405.317	548.25
405.541	580.25
405.765	551.25
405.988	504.25
406.212	514.25
406.436	518.25
406.66	534.25
406.883	528.25
407.107	538.25
407.331	574.25
407.555	647.25
407.778	629.25
408.002	570.25
408.226	517.25
408.449	525.25
408.673	504.25
408.896	535.25
409.12	589.25
409.344	559.25
409.567	493.25
409.791	460.25
410.014	487.25
410.238	458.25
410.461	475.25
410.685	484.25
410.908	490.25
411.132	535.25
411.355	572.25
411.578	526.25
411.802	484.25
412.025	476.25
412.249	488.25
412.472	517.25
412.695	558.25
412.919	529.25
413.142	502.25
413.365	472.25
413.589	483.25
413.812	457.25
414.035	453.25
414.258	443.25
414.482	442.25
414.705	446.25
414.928	444.25
415.151	447.25
415.374	469.25
415.597	450.25
415.821	450.25
416.044	470.25
416.267	446.25
416.49	431.25
416.713	428.25
416.936	447.25
417.159	440.25
417.382	442.25
417.605	437.25
417.828	475.25
418.051	472.25
418.274	448.25
418.497	445.25
418.72	446.25
418.943	432.25
419.166	476.25
419.389	483.25
419.611	472.25
419.834	471.25
420.057	475.25
420.28	479.25
420.503	470.25
420.726	491.25
420.948	493.25
421.171	541.25
421.394	568.25
421.617	490.25
421.839	480.25
422.062	471.25
422.285	489.25
422.507	547.25
422.73	594.25
422.953	590.25
423.175	529.25
423.398	513.25
423.621	485.25
423.843	500.25
424.066	504.25
424.288	513.25
424.511	530.25
424.733	578.25
424.956	648.25
425.178	617.25
425.401	611.25
425.623	665.25
425.846	566.25
426.068	517.25
426.291	508.25
426.513	510.25
426.735	523.25
426.958	578.25
427.18	658.25
427.402	777.25
427.625	878.25
427.847	743.25
428.069	668.25
428.292	596.25
428.514	535.25
428.736	500.25
428.958	510.25
429.181	470.25
429.403	464.25
429.625	490.25
429.847	522.25
430.069	555.25
430.292	589.25
430.514	495.25
430.736	481.25
430.958	466.25
431.18	460.25
431.402	458.25
431.624	448.25
431.846	436.25
432.068	418.25
432.29	447.25
432.512	438.25
432.734	447.25
432.956	462.25
433.178	485.25
433.4	469.25
433.622	451.25
433.844	434.25
434.066	448.25
434.287	434.25
434.509	442.25
434.731	447.25
434.953	464.25
435.175	460.25
435.397	493.25
435.618	506.25
435.84	563.25
436.062	664.25
436.284	704.25
436.505	580.25
436.727	543.25
436.949	510.25
437.17	486.25
437.392	467.25
437.614	468.25
437.835	513.25
438.057	615.25
438.278	728.25
438.5	742.25
438.721	772.25
438.943	759.25
439.165	588.25
439.386	543.25
439.608	528.25
439.829	508.25
440.05	581.25
440.272	598.25
440.493	556.25
440.715	503.25
440.936	490.25
441.158	508.25
441.379	470.25
441.6	508.25
441.822	532.25
442.043	564.25
442.264	628.25
442.486	684.25
442.707	572.25
442.928	527.25
443.149	544.25
443.371	564.25
443.592	604.25
443.813	694.25
444.034	734.25
444.255	608.25
444.476	538.25
444.698	523.25
444.919	508.25
445.14	653.25
445.361	597.25
445.582	564.25
445.803	632.25
446.024	732.25
446.245	730.25
446.466	680.25
446.687	584.25
446.908	542.25
447.129	507.25
447.35	490.25
447.571	477.25
447.792	462.25
448.013	477.25
448.234	489.25
448.455	565.25
448.675	657.25
448.896	772.25
449.117	639.25
449.338	612.25
449.559	690.25
449.779	804.25
450	668.25
450.221	551.25
450.442	504.25
450.662	486.25
450.883	489.25
451.104	484.25
451.324	462.25
451.545	469.25
451.766	463.25
451.986	444.25
452.207	438.25
452.428	432.25
452.648	440.25
452.869	436.25
453.089	436.25
453.31	444.25
453.53	435.25
453.751	439.25
453.971	447.25
454.192	454.25
454.412	434.25
454.633	435.25
454.853	427.25
455.073	434.25
455.294	466.25
455.514	527.25
455.734	493.25
455.955	439.25
456.175	409.25
456.395	402.25
456.616	381.25
456.836	392.25
457.056	380.25
457.276	377.25
457.497	381.25
457.717	390.25
457.937	412.25
458.157	414.25
458.377	428.25
458.598	431.25
458.818	490.25
459.038	570.25
459.258	597.25
459.478	503.25
459.698	451.25
459.918	453.25
460.138	434.25
460.358	430.25
460.578	426.25
460.798	464.25
461.018	421.25
461.238	435.25
461.458	425.25
461.678	452.25
461.898	447.25
462.118	435.25
462.338	454.25
462.558	436.25
462.777	451.25
462.997	450.25
463.217	466.25
463.437	483.25
463.657	466.25
463.876	474.25
464.096	479.25
464.316	441.25
464.536	475.25
464.755	461.25
464.975	475.25
465.195	527.25
465.414	614.25
465.634	519.25
465.854	480.25
466.073	458.25
466.293	442.25
466.512	434.25
466.732	424.25
466.951	437.25
467.171	391.25
467.391	441.25
467.61	448.25
467.829	446.25
468.049	422.25
468.268	452.25
468.488	421.25
468.707	423.25
468.927	414.25
469.146	396.25
469.365	422.25
469.585	448.25
469.804	448.25
470.023	451.25
470.243	413.25
470.462	436.25
470.681	459.25
470.901	455.25
471.12	436.25
471.339	446.25
471.558	441.25
471.777	439.25
471.997	433.25
472.216	459.25
472.435	508.25
472.654	473.25
472.873	448.25
473.092	440.25
473.311	424.25
473.53	423.25
473.749	438.25
473.968	475.25
474.187	574.25
474.406	624.25
474.625	492.25
474.844	462.25
475.063	447.25
475.282	440.25
475.501	447.25
475.72	450.25
475.939	410.25
476.158	432.25
476.377	442.25
476.596	442.25
476.814	446.25
477.033	455.25
477.252	476.25
477.471	460.25
477.69	463.25
477.908	476.25
478.127	489.25
478.346	454.25
478.564	474.25
478.783	468.25
479.002	482.25
479.22	477.25
479.439	505.25
479.658	523.25
479.876	525.25
480.095	541.25
480.313	545.25
480.532	546.25
480.751	541.25
480.969	550.25
481.188	603.25
481.406	650.25
481.624	577.25
481.843	537.25
482.061	516.25
482.28	527.25
482.498	504.25
482.717	508.25
482.935	529.25
483.153	504.25
483.372	503.25
483.59	521.25
483.808	523.25
484.027	510.25
484.245	498.25
484.463	496.25
484.681	498.25
484.9	526.25
485.118	528.25
485.336	535.25
485.554	527.25
485.772	536.25
485.99	524.25
486.209	538.25
486.427	548.25
486.645	550.25
486.863	567.25
487.081	578.25
487.299	559.25
487.517	545.25
487.735	547.25
487.953	556.25
488.171	555.25
488.389	567.25
488.607	593.25
488.825	566.25
489.043	550.25
489.261	569.25
489.479	546.25
489.696	564.25
489.914	550.25
490.132	583.25
490.35	586.25
490.568	580.25
490.786	590.25
491.003	597.25
491.221	615.25
491.439	637.25
491.657	625.25
491.874	638.25
492.092	609.25
492.31	618.25
492.527	633.25
492.745	654.25
492.963	643.25
493.18	650.25
493.398	644.25
493.615	668.25
493.833	672.25
494.05	650.25
494.268	665.25
494.485	646.25
494.703	659.25
494.92	656.25
495.138	654.25
495.355	682.25
495.573	685.25
495.79	674.25
496.008	694.25
496.225	667.25
496.442	657.25
496.66	668.25
496.877	662.25
497.094	678.25
497.312	682.25
497.529	681.25
497.746	676.25
497.963	687.25
498.181	699.25
498.398	706.25
498.615	712.25
498.832	720.25
499.049	728.25
499.267	750.25
499.484	748.25
499.701	762.25
499.918	756.25
500.135	795.25
500.352	822.25
500.569	836.25
500.786	844.25
501.003	822.25
501.22	812.25
501.437	812.25
501.654	795.25
501.871	824.25
