Data from 1989.PennyLincolnUp.Lamp.En5.5.200Scan.071819.P2_HRD10591_17-23-35-973.txt Node
Date: Thu Jul 18 17:23:35 EDT 2019
User: cochatt
Spectrometer: HR+D1059
Trigger mode: 1
Integration Time (sec): 1.000000E-1
Scans to average: 1
Electric dark correction enabled: true
Nonlinearity correction enabled: false
Boxcar width: 0
XAxis mode: Wavelengths
Number of Pixels in Spectrum: 2048
>>>>>Begin Spectral Data<<<<<
223.165	-12.06
223.4	-12.06
223.635	-12.06
223.869	-21.06
224.104	-13.06
224.338	-19.06
224.573	-3.06
224.808	-11.06
225.042	-20.06
225.277	-1.06
225.511	3.94
225.746	3.94
225.98	6.94
226.215	6.94
226.449	9.94
226.683	18.94
226.918	31.94
227.152	17.94
227.387	38.94
227.621	43.94
227.856	34.94
228.09	35.94
228.324	44.94
228.559	71.94
228.793	83.94
229.027	89.94
229.262	100.94
229.496	121.94
229.73	144.94
229.964	165.94
230.199	124.94
230.433	115.94
230.667	111.94
230.901	105.94
231.136	107.94
231.37	120.94
231.604	109.94
231.838	108.94
232.072	116.94
232.306	106.94
232.541	112.94
232.775	117.94
233.009	115.94
233.243	106.94
233.477	134.94
233.711	113.94
233.945	122.94
234.179	116.94
234.413	107.94
234.647	111.94
234.881	127.94
235.115	117.94
235.349	114.94
235.583	135.94
235.817	124.94
236.051	118.94
236.285	121.94
236.519	118.94
236.753	124.94
236.987	148.94
237.221	170.94
237.455	225.94
237.689	198.94
237.922	134.94
238.156	141.94
238.39	137.94
238.624	129.94
238.858	125.94
239.091	110.94
239.325	120.94
239.559	132.94
239.793	117.94
240.027	145.94
240.26	144.94
240.494	139.94
240.728	155.94
240.961	135.94
241.195	150.94
241.429	125.94
241.662	144.94
241.896	110.94
242.13	126.94
242.363	139.94
242.597	124.94
242.83	131.94
243.064	137.94
243.298	134.94
243.531	150.94
243.765	156.94
243.998	151.94
244.232	147.94
244.465	144.94
244.699	134.94
244.932	148.94
245.166	141.94
245.399	146.94
245.633	157.94
245.866	145.94
246.099	157.94
246.333	146.94
246.566	162.94
246.8	163.94
247.033	159.94
247.266	159.94
247.5	170.94
247.733	154.94
247.966	154.94
248.2	174.94
248.433	186.94
248.666	190.94
248.899	188.94
249.133	199.94
249.366	210.94
249.599	196.94
249.832	191.94
250.066	190.94
250.299	182.94
250.532	199.94
250.765	200.94
250.998	227.94
251.231	224.94
251.465	223.94
251.698	221.94
251.931	200.94
252.164	199.94
252.397	191.94
252.63	204.94
252.863	213.94
253.096	220.94
253.329	223.94
253.562	229.94
253.795	227.94
254.028	227.94
254.261	235.94
254.494	245.94
254.727	257.94
254.96	283.94
255.193	279.94
255.426	264.94
255.659	233.94
255.892	225.94
256.124	230.94
256.357	217.94
256.59	219.94
256.823	228.94
257.056	212.94
257.289	209.94
257.521	227.94
257.754	213.94
257.987	202.94
258.22	209.94
258.452	213.94
258.685	208.94
258.918	221.94
259.151	226.94
259.383	226.94
259.616	219.94
259.849	227.94
260.081	236.94
260.314	248.94
260.547	276.94
260.779	265.94
261.012	235.94
261.244	227.94
261.477	231.94
261.71	230.94
261.942	237.94
262.175	235.94
262.407	229.94
262.64	199.94
262.872	211.94
263.105	220.94
263.337	217.94
263.57	211.94
263.802	222.94
264.035	236.94
264.267	218.94
264.499	204.94
264.732	216.94
264.964	210.94
265.197	198.94
265.429	211.94
265.661	220.94
265.894	225.94
266.126	226.94
266.358	237.94
266.591	221.94
266.823	245.94
267.055	246.94
267.287	208.94
267.52	219.94
267.752	228.94
267.984	240.94
268.216	236.94
268.448	242.94
268.681	248.94
268.913	264.94
269.145	269.94
269.377	281.94
269.609	288.94
269.841	264.94
270.073	280.94
270.306	295.94
270.538	313.94
270.77	313.94
271.002	328.94
271.234	319.94
271.466	312.94
271.698	314.94
271.93	322.94
272.162	307.94
272.394	324.94
272.626	304.94
272.858	312.94
273.09	290.94
273.322	264.94
273.553	263.94
273.785	266.94
274.017	264.94
274.249	265.94
274.481	269.94
274.713	267.94
274.945	278.94
275.176	275.94
275.408	253.94
275.64	262.94
275.872	260.94
276.104	273.94
276.335	279.94
276.567	259.94
276.799	284.94
277.031	298.94
277.262	314.94
277.494	327.94
277.726	298.94
277.957	288.94
278.189	287.94
278.421	280.94
278.652	272.94
278.884	293.94
279.115	259.94
279.347	271.94
279.579	273.94
279.81	266.94
280.042	269.94
280.273	268.94
280.505	298.94
280.736	263.94
280.968	274.94
281.199	270.94
281.431	280.94
281.662	263.94
281.894	276.94
282.125	262.94
282.356	286.94
282.588	310.94
282.819	320.94
283.051	291.94
283.282	280.94
283.513	284.94
283.745	268.94
283.976	271.94
284.207	283.94
284.439	284.94
284.67	280.94
284.901	284.94
285.132	283.94
285.364	277.94
285.595	280.94
285.826	264.94
286.057	283.94
286.288	292.94
286.52	273.94
286.751	273.94
286.982	283.94
287.213	293.94
287.444	266.94
287.675	298.94
287.906	299.94
288.138	301.94
288.369	296.94
288.6	301.94
288.831	318.94
289.062	322.94
289.293	299.94
289.524	292.94
289.755	291.94
289.986	300.94
290.217	311.94
290.448	294.94
290.679	290.94
290.91	300.94
291.141	280.94
291.371	276.94
291.602	286.94
291.833	285.94
292.064	300.94
292.295	297.94
292.526	290.94
292.757	292.94
292.987	303.94
293.218	280.94
293.449	294.94
293.68	290.94
293.91	298.94
294.141	283.94
294.372	285.94
294.603	304.94
294.833	295.94
295.064	284.94
295.295	283.94
295.525	299.94
295.756	296.94
295.987	326.94
296.217	318.94
296.448	330.94
296.679	289.94
296.909	290.94
297.14	306.94
297.37	279.94
297.601	314.94
297.831	295.94
298.062	312.94
298.292	299.94
298.523	296.94
298.753	315.94
298.984	301.94
299.214	279.94
299.445	309.94
299.675	314.94
299.905	320.94
300.136	322.94
300.366	297.94
300.597	306.94
300.827	303.94
301.057	335.94
301.288	321.94
301.518	331.94
301.748	328.94
301.979	335.94
302.209	311.94
302.439	315.94
302.669	316.94
302.9	327.94
303.13	322.94
303.36	331.94
303.59	319.94
303.82	329.94
304.051	347.94
304.281	335.94
304.511	317.94
304.741	319.94
304.971	322.94
305.201	330.94
305.431	290.94
305.661	341.94
305.891	321.94
306.121	334.94
306.352	350.94
306.582	341.94
306.812	322.94
307.042	319.94
307.272	333.94
307.502	343.94
307.731	322.94
307.961	342.94
308.191	334.94
308.421	323.94
308.651	321.94
308.881	321.94
309.111	324.94
309.341	335.94
309.571	336.94
309.8	346.94
310.03	386.94
310.26	367.94
310.49	357.94
310.72	359.94
310.949	406.94
311.179	394.94
311.409	370.94
311.639	371.94
311.868	384.94
312.098	388.94
312.328	384.94
312.557	399.94
312.787	398.94
313.017	416.94
313.246	396.94
313.476	356.94
313.706	367.94
313.935	374.94
314.165	394.94
314.394	406.94
314.624	394.94
314.853	380.94
315.083	388.94
315.312	380.94
315.542	367.94
315.771	353.94
316.001	387.94
316.23	366.94
316.46	378.94
316.689	364.94
316.919	350.94
317.148	375.94
317.377	364.94
317.607	384.94
317.836	372.94
318.065	393.94
318.295	371.94
318.524	387.94
318.753	380.94
318.983	368.94
319.212	372.94
319.441	390.94
319.67	398.94
319.9	375.94
320.129	376.94
320.358	375.94
320.587	384.94
320.816	372.94
321.046	406.94
321.275	389.94
321.504	401.94
321.733	392.94
321.962	406.94
322.191	426.94
322.42	431.94
322.649	447.94
322.878	436.94
323.108	444.94
323.337	498.94
323.566	494.94
323.795	522.94
324.024	570.94
324.253	687.94
324.482	954.94
324.71	1466.94
324.939	2094.94
325.168	1810.94
325.397	939.94
325.626	640.94
325.855	535.94
326.084	480.94
326.313	492.94
326.542	496.94
326.77	536.94
326.999	620.94
327.228	870.94
327.457	1236.94
327.686	1548.94
327.914	1026.94
328.143	679.94
328.372	581.94
328.6	550.94
328.829	528.94
329.058	564.94
329.287	551.94
329.515	510.94
329.744	483.94
329.972	462.94
330.201	492.94
330.43	498.94
330.658	531.94
330.887	575.94
331.115	571.94
331.344	480.94
331.572	460.94
331.801	475.94
332.03	456.94
332.258	439.94
332.486	431.94
332.715	434.94
332.943	412.94
333.172	424.94
333.4	437.94
333.629	432.94
333.857	456.94
334.085	436.94
334.314	429.94
334.542	440.94
334.771	445.94
334.999	459.94
335.227	414.94
335.455	413.94
335.684	430.94
335.912	456.94
336.14	426.94
336.369	412.94
336.597	426.94
336.825	427.94
337.053	438.94
337.281	414.94
337.51	421.94
337.738	427.94
337.966	421.94
338.194	435.94
338.422	436.94
338.65	427.94
338.878	416.94
339.106	413.94
339.334	429.94
339.562	410.94
339.79	405.94
340.018	406.94
340.246	436.94
340.474	414.94
340.702	408.94
340.93	410.94
341.158	399.94
341.386	405.94
341.614	431.94
341.842	431.94
342.07	411.94
342.298	391.94
342.526	395.94
342.754	405.94
342.981	390.94
343.209	420.94
343.437	409.94
343.665	391.94
343.893	422.94
344.12	418.94
344.348	426.94
344.576	404.94
344.804	419.94
345.031	431.94
345.259	430.94
345.487	423.94
345.714	415.94
345.942	404.94
346.17	405.94
346.397	394.94
346.625	390.94
346.853	414.94
347.08	382.94
347.308	416.94
347.535	399.94
347.763	398.94
347.99	403.94
348.218	425.94
348.445	407.94
348.673	401.94
348.9	416.94
349.128	400.94
349.355	376.94
349.583	393.94
349.81	407.94
350.037	391.94
350.265	389.94
350.492	379.94
350.72	384.94
350.947	387.94
351.174	404.94
351.402	426.94
351.629	401.94
351.856	408.94
352.083	412.94
352.311	409.94
352.538	434.94
352.765	425.94
352.992	384.94
353.22	381.94
353.447	411.94
353.674	379.94
353.901	394.94
354.128	380.94
354.355	394.94
354.583	400.94
354.81	363.94
355.037	399.94
355.264	389.94
355.491	378.94
355.718	352.94
355.945	366.94
356.172	366.94
356.399	358.94
356.626	385.94
356.853	382.94
357.08	380.94
357.307	371.94
357.534	358.94
357.761	370.94
357.988	366.94
358.215	375.94
358.441	360.94
358.668	351.94
358.895	375.94
359.122	378.94
359.349	399.94
359.576	408.94
359.802	422.94
360.029	438.94
360.256	443.94
360.483	426.94
360.709	390.94
360.936	402.94
361.163	401.94
361.39	389.94
361.616	399.94
361.843	383.94
362.07	390.94
362.296	398.94
362.523	415.94
362.749	396.94
362.976	398.94
363.203	366.94
363.429	400.94
363.656	399.94
363.882	367.94
364.109	376.94
364.335	381.94
364.562	383.94
364.788	384.94
365.015	373.94
365.241	381.94
365.468	386.94
365.694	380.94
365.92	372.94
366.147	374.94
366.373	381.94
366.599	383.94
366.826	375.94
367.052	379.94
367.278	375.94
367.505	381.94
367.731	391.94
367.957	382.94
368.184	379.94
368.41	390.94
368.636	390.94
368.862	395.94
369.089	384.94
369.315	376.94
369.541	378.94
369.767	381.94
369.993	372.94
370.219	394.94
370.445	383.94
370.672	372.94
370.898	389.94
371.124	365.94
371.35	360.94
371.576	389.94
371.802	391.94
372.028	349.94
372.254	378.94
372.48	368.94
372.706	378.94
372.932	370.94
373.158	372.94
373.384	374.94
373.61	367.94
373.835	371.94
374.061	346.94
374.287	367.94
374.513	396.94
374.739	384.94
374.965	407.94
375.191	372.94
375.416	382.94
375.642	382.94
375.868	364.94
376.094	359.94
376.319	348.94
376.545	394.94
376.771	384.94
376.997	374.94
377.222	367.94
377.448	354.94
377.674	351.94
377.899	384.94
378.125	376.94
378.35	347.94
378.576	366.94
378.802	359.94
379.027	347.94
379.253	363.94
379.478	347.94
379.704	361.94
379.929	379.94
380.155	364.94
380.38	374.94
380.606	374.94
380.831	367.94
381.057	370.94
381.282	382.94
381.507	380.94
381.733	380.94
381.958	398.94
382.184	380.94
382.409	351.94
382.634	362.94
382.86	380.94
383.085	378.94
383.31	383.94
383.535	366.94
383.761	378.94
383.986	386.94
384.211	367.94
384.436	380.94
384.662	391.94
384.887	396.94
385.112	374.94
385.337	372.94
385.562	387.94
385.787	393.94
386.013	418.94
386.238	407.94
386.463	394.94
386.688	393.94
386.913	389.94
387.138	395.94
387.363	410.94
387.588	390.94
387.813	413.94
388.038	402.94
388.263	376.94
388.488	370.94
388.713	386.94
388.938	394.94
389.163	382.94
389.387	411.94
389.612	380.94
389.837	384.94
390.062	398.94
390.287	387.94
390.512	390.94
390.736	389.94
390.961	401.94
391.186	384.94
391.411	397.94
391.636	392.94
391.86	388.94
392.085	400.94
392.31	385.94
392.534	398.94
392.759	389.94
392.984	394.94
393.208	400.94
393.433	407.94
393.658	396.94
393.882	397.94
394.107	405.94
394.331	398.94
394.556	394.94
394.78	420.94
395.005	402.94
395.229	401.94
395.454	395.94
395.678	413.94
395.903	411.94
396.127	441.94
396.352	444.94
396.576	423.94
396.801	400.94
397.025	402.94
397.249	414.94
397.474	412.94
397.698	382.94
397.922	425.94
398.147	458.94
398.371	444.94
398.595	430.94
398.82	437.94
399.044	437.94
399.268	434.94
399.492	463.94
399.717	494.94
399.941	508.94
400.165	528.94
400.389	534.94
400.613	508.94
400.837	471.94
401.062	470.94
401.286	434.94
401.51	437.94
401.734	439.94
401.958	450.94
402.182	440.94
402.406	441.94
402.63	460.94
402.854	456.94
403.078	444.94
403.302	435.94
403.526	457.94
403.75	457.94
403.974	422.94
404.198	430.94
404.422	426.94
404.645	439.94
404.869	439.94
405.093	464.94
405.317	483.94
405.541	528.94
405.765	474.94
405.988	473.94
406.212	473.94
406.436	504.94
406.66	488.94
406.883	478.94
407.107	495.94
407.331	565.94
407.555	614.94
407.778	624.94
408.002	540.94
408.226	509.94
408.449	491.94
408.673	494.94
408.896	524.94
409.12	564.94
409.344	524.94
409.567	502.94
409.791	476.94
410.014	448.94
410.238	451.94
410.461	434.94
410.685	460.94
410.908	463.94
411.132	506.94
411.355	525.94
411.578	522.94
411.802	476.94
412.025	453.94
412.249	452.94
412.472	444.94
412.695	465.94
412.919	447.94
413.142	429.94
413.365	439.94
413.589	420.94
413.812	431.94
414.035	425.94
414.258	433.94
414.482	433.94
414.705	431.94
414.928	433.94
415.151	426.94
415.374	408.94
415.597	417.94
415.821	424.94
416.044	428.94
416.267	421.94
416.49	421.94
416.713	414.94
416.936	423.94
417.159	419.94
417.382	427.94
417.605	418.94
417.828	434.94
418.051	449.94
418.274	443.94
418.497	426.94
418.72	415.94
418.943	432.94
419.166	434.94
419.389	438.94
419.611	449.94
419.834	450.94
420.057	448.94
420.28	442.94
420.503	436.94
420.726	443.94
420.948	446.94
421.171	484.94
421.394	531.94
421.617	458.94
421.839	434.94
422.062	462.94
422.285	456.94
422.507	538.94
422.73	599.94
422.953	569.94
423.175	516.94
423.398	462.94
423.621	468.94
423.843	479.94
424.066	478.94
424.288	474.94
424.511	516.94
424.733	587.94
424.956	628.94
425.178	609.94
425.401	585.94
425.623	626.94
425.846	542.94
426.068	483.94
426.291	469.94
426.513	511.94
426.735	503.94
426.958	536.94
427.18	630.94
427.402	740.94
427.625	805.94
427.847	699.94
428.069	583.94
428.292	548.94
428.514	488.94
428.736	487.94
428.958	462.94
429.181	474.94
429.403	466.94
429.625	461.94
429.847	482.94
430.069	537.94
430.292	554.94
430.514	472.94
430.736	455.94
430.958	467.94
431.18	437.94
431.402	424.94
431.624	438.94
431.846	419.94
432.068	422.94
432.29	421.94
432.512	427.94
432.734	430.94
432.956	437.94
433.178	435.94
433.4	437.94
433.622	435.94
433.844	431.94
434.066	410.94
434.287	433.94
434.509	425.94
434.731	438.94
434.953	430.94
435.175	477.94
435.397	487.94
435.618	498.94
435.84	491.94
436.062	602.94
436.284	669.94
436.505	594.94
436.727	503.94
436.949	459.94
437.17	456.94
437.392	442.94
437.614	469.94
437.835	479.94
438.057	590.94
438.278	688.94
438.5	696.94
438.721	748.94
438.943	702.94
439.165	567.94
439.386	507.94
439.608	505.94
439.829	487.94
440.05	513.94
440.272	558.94
440.493	531.94
440.715	486.94
440.936	457.94
441.158	446.94
441.379	475.94
441.6	474.94
441.822	487.94
442.043	507.94
442.264	610.94
442.486	654.94
442.707	543.94
442.928	519.94
443.149	502.94
443.371	522.94
443.592	588.94
443.813	645.94
444.034	716.94
444.255	601.94
444.476	522.94
444.698	494.94
444.919	485.94
445.14	564.94
445.361	534.94
445.582	535.94
445.803	598.94
446.024	687.94
446.245	719.94
446.466	631.94
446.687	529.94
446.908	507.94
447.129	474.94
447.35	464.94
447.571	471.94
447.792	452.94
448.013	459.94
448.234	480.94
448.455	516.94
448.675	618.94
448.896	743.94
449.117	621.94
449.338	588.94
449.559	702.94
449.779	783.94
450	619.94
450.221	507.94
450.442	477.94
450.662	452.94
450.883	460.94
451.104	479.94
451.324	455.94
451.545	426.94
451.766	427.94
451.986	394.94
452.207	416.94
452.428	393.94
452.648	404.94
452.869	395.94
453.089	402.94
453.31	438.94
453.53	417.94
453.751	406.94
453.971	412.94
454.192	440.94
454.412	409.94
454.633	400.94
454.853	401.94
455.073	411.94
455.294	419.94
455.514	474.94
455.734	466.94
455.955	415.94
456.175	401.94
456.395	381.94
456.616	395.94
456.836	359.94
457.056	392.94
457.276	374.94
457.497	376.94
457.717	379.94
457.937	383.94
458.157	386.94
458.377	399.94
458.598	426.94
458.818	444.94
459.038	528.94
459.258	559.94
459.478	461.94
459.698	451.94
459.918	419.94
460.138	427.94
460.358	425.94
460.578	426.94
460.798	413.94
461.018	382.94
461.238	420.94
461.458	423.94
461.678	406.94
461.898	398.94
462.118	406.94
462.338	432.94
462.558	428.94
462.777	446.94
462.997	451.94
463.217	438.94
463.437	447.94
463.657	435.94
463.876	437.94
464.096	454.94
464.316	436.94
464.536	448.94
464.755	458.94
464.975	441.94
465.195	501.94
465.414	556.94
465.634	470.94
465.854	443.94
466.073	436.94
466.293	435.94
466.512	421.94
466.732	408.94
466.951	426.94
467.171	396.94
467.391	402.94
467.61	429.94
467.829	431.94
468.049	415.94
468.268	399.94
468.488	414.94
468.707	386.94
468.927	403.94
469.146	395.94
469.365	398.94
469.585	401.94
469.804	404.94
470.023	422.94
470.243	411.94
470.462	402.94
470.681	435.94
470.901	459.94
471.12	423.94
471.339	434.94
471.558	424.94
471.777	431.94
471.997	409.94
472.216	385.94
472.435	409.94
472.654	412.94
472.873	406.94
473.092	412.94
473.311	414.94
473.53	417.94
473.749	418.94
473.968	462.94
474.187	573.94
474.406	556.94
474.625	480.94
474.844	432.94
475.063	438.94
475.282	409.94
475.501	422.94
475.72	418.94
475.939	427.94
476.158	418.94
476.377	412.94
476.596	434.94
476.814	434.94
477.033	424.94
477.252	425.94
477.471	440.94
477.69	461.94
477.908	439.94
478.127	428.94
478.346	445.94
478.564	459.94
478.783	456.94
479.002	461.94
479.22	457.94
479.439	468.94
479.658	457.94
479.876	479.94
480.095	499.94
480.313	520.94
480.532	500.94
480.751	512.94
480.969	501.94
481.188	510.94
481.406	506.94
481.624	493.94
481.843	498.94
482.061	489.94
482.28	484.94
482.498	479.94
482.717	490.94
482.935	483.94
483.153	478.94
483.372	479.94
483.59	480.94
483.808	490.94
484.027	479.94
484.245	486.94
484.463	483.94
484.681	484.94
484.9	501.94
485.118	506.94
485.336	477.94
485.554	494.94
485.772	507.94
485.99	486.94
486.209	488.94
486.427	511.94
486.645	510.94
486.863	541.94
487.081	537.94
487.299	518.94
487.517	512.94
487.735	517.94
487.953	529.94
488.171	533.94
488.389	534.94
488.607	540.94
488.825	515.94
489.043	538.94
489.261	518.94
489.479	505.94
489.696	535.94
489.914	535.94
490.132	543.94
490.35	531.94
490.568	538.94
490.786	569.94
491.003	559.94
491.221	580.94
491.439	576.94
491.657	559.94
491.874	578.94
492.092	589.94
492.31	591.94
492.527	596.94
492.745	600.94
492.963	586.94
493.18	598.94
493.398	619.94
493.615	604.94
493.833	605.94
494.05	605.94
494.268	595.94
494.485	592.94
494.703	602.94
494.92	607.94
495.138	620.94
495.355	609.94
495.573	620.94
495.79	607.94
496.008	617.94
496.225	653.94
496.442	627.94
496.66	628.94
496.877	631.94
497.094	614.94
497.312	654.94
497.529	631.94
497.746	611.94
497.963	616.94
498.181	646.94
498.398	651.94
498.615	673.94
498.832	685.94
499.049	680.94
499.267	707.94
499.484	719.94
499.701	718.94
499.918	773.94
500.135	776.94
500.352	803.94
500.569	823.94
500.786	810.94
501.003	799.94
501.22	783.94
501.437	780.94
501.654	773.94
501.871	759.94
