Data from 1989.PennyLincolnUp.Lamp.En5.5.200Scan.071819.P2_HRD10591_17-24-18-973.txt Node
Date: Thu Jul 18 17:24:18 EDT 2019
User: cochatt
Spectrometer: HR+D1059
Trigger mode: 1
Integration Time (sec): 1.000000E-1
Scans to average: 1
Electric dark correction enabled: true
Nonlinearity correction enabled: false
Boxcar width: 0
XAxis mode: Wavelengths
Number of Pixels in Spectrum: 2048
>>>>>Begin Spectral Data<<<<<
223.165	-14.75
223.4	-14.75
223.635	-14.75
223.869	-13.75
224.104	-13.75
224.338	-11.75
224.573	-12.75
224.808	-24.75
225.042	-16.75
225.277	1.25
225.511	-8.75
225.746	8.25
225.98	15.25
226.215	5.25
226.449	11.25
226.683	33.25
226.918	21.25
227.152	21.25
227.387	44.25
227.621	23.25
227.856	22.25
228.09	33.25
228.324	52.25
228.559	44.25
228.793	57.25
229.027	96.25
229.262	101.25
229.496	112.25
229.73	139.25
229.964	151.25
230.199	127.25
230.433	116.25
230.667	104.25
230.901	119.25
231.136	108.25
231.37	107.25
231.604	99.25
231.838	99.25
232.072	108.25
232.306	117.25
232.541	115.25
232.775	102.25
233.009	97.25
233.243	92.25
233.477	104.25
233.711	94.25
233.945	119.25
234.179	93.25
234.413	118.25
234.647	119.25
234.881	111.25
235.115	110.25
235.349	118.25
235.583	117.25
235.817	115.25
236.051	131.25
236.285	135.25
236.519	118.25
236.753	136.25
236.987	151.25
237.221	168.25
237.455	244.25
237.689	191.25
237.922	154.25
238.156	155.25
238.39	130.25
238.624	140.25
238.858	129.25
239.091	145.25
239.325	142.25
239.559	132.25
239.793	131.25
240.027	141.25
240.26	137.25
240.494	158.25
240.728	140.25
240.961	153.25
241.195	148.25
241.429	136.25
241.662	136.25
241.896	147.25
242.13	127.25
242.363	126.25
242.597	152.25
242.83	144.25
243.064	144.25
243.298	135.25
243.531	145.25
243.765	140.25
243.998	136.25
244.232	141.25
244.465	147.25
244.699	159.25
244.932	150.25
245.166	147.25
245.399	161.25
245.633	151.25
245.866	147.25
246.099	159.25
246.333	158.25
246.566	155.25
246.8	152.25
247.033	156.25
247.266	178.25
247.5	171.25
247.733	162.25
247.966	176.25
248.2	167.25
248.433	188.25
248.666	162.25
248.899	180.25
249.133	200.25
249.366	219.25
249.599	198.25
249.832	187.25
250.066	176.25
250.299	183.25
250.532	184.25
250.765	205.25
250.998	223.25
251.231	228.25
251.465	229.25
251.698	201.25
251.931	217.25
252.164	205.25
252.397	216.25
252.63	214.25
252.863	229.25
253.096	236.25
253.329	255.25
253.562	223.25
253.795	209.25
254.028	217.25
254.261	224.25
254.494	247.25
254.727	261.25
254.96	288.25
255.193	269.25
255.426	259.25
255.659	251.25
255.892	228.25
256.124	216.25
256.357	220.25
256.59	232.25
256.823	219.25
257.056	213.25
257.289	239.25
257.521	224.25
257.754	212.25
257.987	203.25
258.22	212.25
258.452	212.25
258.685	215.25
258.918	236.25
259.151	228.25
259.383	228.25
259.616	234.25
259.849	220.25
260.081	242.25
260.314	274.25
260.547	269.25
260.779	272.25
261.012	261.25
261.244	242.25
261.477	257.25
261.71	231.25
261.942	232.25
262.175	233.25
262.407	233.25
262.64	220.25
262.872	231.25
263.105	226.25
263.337	240.25
263.57	210.25
263.802	213.25
264.035	227.25
264.267	222.25
264.499	222.25
264.732	222.25
264.964	218.25
265.197	227.25
265.429	220.25
265.661	223.25
265.894	239.25
266.126	223.25
266.358	235.25
266.591	220.25
266.823	231.25
267.055	242.25
267.287	263.25
267.52	235.25
267.752	242.25
267.984	238.25
268.216	232.25
268.448	247.25
268.681	256.25
268.913	269.25
269.145	277.25
269.377	290.25
269.609	271.25
269.841	281.25
270.073	292.25
270.306	321.25
270.538	334.25
270.77	336.25
271.002	332.25
271.234	297.25
271.466	315.25
271.698	325.25
271.93	330.25
272.162	333.25
272.394	353.25
272.626	336.25
272.858	319.25
273.09	294.25
273.322	289.25
273.553	268.25
273.785	284.25
274.017	279.25
274.249	286.25
274.481	285.25
274.713	264.25
274.945	283.25
275.176	292.25
275.408	286.25
275.64	272.25
275.872	268.25
276.104	287.25
276.335	280.25
276.567	287.25
276.799	283.25
277.031	295.25
277.262	333.25
277.494	357.25
277.726	327.25
277.957	309.25
278.189	287.25
278.421	283.25
278.652	286.25
278.884	305.25
279.115	292.25
279.347	255.25
279.579	266.25
279.81	277.25
280.042	259.25
280.273	259.25
280.505	293.25
280.736	249.25
280.968	269.25
281.199	269.25
281.431	280.25
281.662	278.25
281.894	272.25
282.125	269.25
282.356	283.25
282.588	321.25
282.819	316.25
283.051	287.25
283.282	295.25
283.513	290.25
283.745	291.25
283.976	295.25
284.207	292.25
284.439	294.25
284.67	280.25
284.901	297.25
285.132	291.25
285.364	285.25
285.595	306.25
285.826	309.25
286.057	293.25
286.288	290.25
286.52	298.25
286.751	301.25
286.982	272.25
287.213	287.25
287.444	282.25
287.675	300.25
287.906	311.25
288.138	311.25
288.369	313.25
288.6	328.25
288.831	307.25
289.062	301.25
289.293	303.25
289.524	287.25
289.755	303.25
289.986	304.25
290.217	308.25
290.448	292.25
290.679	300.25
290.91	291.25
291.141	287.25
291.371	293.25
291.602	278.25
291.833	294.25
292.064	295.25
292.295	297.25
292.526	292.25
292.757	301.25
292.987	288.25
293.218	292.25
293.449	300.25
293.68	294.25
293.91	279.25
294.141	313.25
294.372	298.25
294.603	295.25
294.833	299.25
295.064	284.25
295.295	309.25
295.525	314.25
295.756	301.25
295.987	312.25
296.217	325.25
296.448	358.25
296.679	335.25
296.909	297.25
297.14	312.25
297.37	292.25
297.601	308.25
297.831	298.25
298.062	295.25
298.292	306.25
298.523	335.25
298.753	307.25
298.984	297.25
299.214	300.25
299.445	311.25
299.675	316.25
299.905	315.25
300.136	339.25
300.366	306.25
300.597	321.25
300.827	319.25
301.057	328.25
301.288	316.25
301.518	367.25
301.748	334.25
301.979	345.25
302.209	341.25
302.439	326.25
302.669	331.25
302.9	356.25
303.13	329.25
303.36	325.25
303.59	339.25
303.82	364.25
304.051	348.25
304.281	324.25
304.511	332.25
304.741	335.25
304.971	332.25
305.201	325.25
305.431	341.25
305.661	348.25
305.891	347.25
306.121	333.25
306.352	347.25
306.582	336.25
306.812	356.25
307.042	345.25
307.272	332.25
307.502	331.25
307.731	326.25
307.961	338.25
308.191	322.25
308.421	339.25
308.651	333.25
308.881	324.25
309.111	352.25
309.341	357.25
309.571	364.25
309.8	371.25
310.03	387.25
310.26	384.25
310.49	392.25
310.72	375.25
310.949	407.25
311.179	427.25
311.409	410.25
311.639	379.25
311.868	404.25
312.098	388.25
312.328	426.25
312.557	416.25
312.787	443.25
313.017	435.25
313.246	413.25
313.476	378.25
313.706	385.25
313.935	390.25
314.165	428.25
314.394	435.25
314.624	419.25
314.853	389.25
315.083	388.25
315.312	385.25
315.542	393.25
315.771	378.25
316.001	368.25
316.23	373.25
316.46	385.25
316.689	360.25
316.919	395.25
317.148	399.25
317.377	390.25
317.607	364.25
317.836	386.25
318.065	361.25
318.295	399.25
318.524	369.25
318.753	383.25
318.983	384.25
319.212	411.25
319.441	400.25
319.67	404.25
319.9	386.25
320.129	388.25
320.358	406.25
320.587	386.25
320.816	393.25
321.046	403.25
321.275	390.25
321.504	418.25
321.733	417.25
321.962	439.25
322.191	425.25
322.42	445.25
322.649	459.25
322.878	483.25
323.108	485.25
323.337	508.25
323.566	527.25
323.795	562.25
324.024	618.25
324.253	724.25
324.482	1065.25
324.71	1632.25
324.939	2337.25
325.168	2015.25
325.397	1051.25
325.626	709.25
325.855	593.25
326.084	544.25
326.313	514.25
326.542	539.25
326.77	595.25
326.999	683.25
327.228	915.25
327.457	1427.25
327.686	1737.25
327.914	1205.25
328.143	764.25
328.372	654.25
328.6	614.25
328.829	588.25
329.058	611.25
329.287	604.25
329.515	570.25
329.744	516.25
329.972	513.25
330.201	525.25
330.43	539.25
330.658	577.25
330.887	599.25
331.115	626.25
331.344	564.25
331.572	500.25
331.801	507.25
332.03	505.25
332.258	483.25
332.486	463.25
332.715	461.25
332.943	450.25
333.172	468.25
333.4	464.25
333.629	475.25
333.857	467.25
334.085	472.25
334.314	475.25
334.542	468.25
334.771	476.25
334.999	454.25
335.227	466.25
335.455	438.25
335.684	433.25
335.912	447.25
336.14	452.25
336.369	445.25
336.597	465.25
336.825	441.25
337.053	448.25
337.281	443.25
337.51	439.25
337.738	448.25
337.966	441.25
338.194	429.25
338.422	449.25
338.65	442.25
338.878	441.25
339.106	424.25
339.334	425.25
339.562	421.25
339.79	423.25
340.018	421.25
340.246	441.25
340.474	430.25
340.702	426.25
340.93	435.25
341.158	425.25
341.386	427.25
341.614	419.25
341.842	450.25
342.07	409.25
342.298	416.25
342.526	436.25
342.754	413.25
342.981	407.25
343.209	432.25
343.437	413.25
343.665	412.25
343.893	440.25
344.12	440.25
344.348	443.25
344.576	432.25
344.804	431.25
345.031	459.25
345.259	452.25
345.487	416.25
345.714	415.25
345.942	428.25
346.17	418.25
346.397	415.25
346.625	399.25
346.853	408.25
347.08	422.25
347.308	417.25
347.535	424.25
347.763	437.25
347.99	437.25
348.218	425.25
348.445	423.25
348.673	416.25
348.9	412.25
349.128	421.25
349.355	393.25
349.583	409.25
349.81	405.25
350.037	410.25
350.265	403.25
350.492	433.25
350.72	406.25
350.947	409.25
351.174	418.25
351.402	428.25
351.629	414.25
351.856	417.25
352.083	435.25
352.311	453.25
352.538	444.25
352.765	433.25
352.992	424.25
353.22	392.25
353.447	393.25
353.674	396.25
353.901	381.25
354.128	392.25
354.355	398.25
354.583	387.25
354.81	371.25
355.037	385.25
355.264	376.25
355.491	382.25
355.718	374.25
355.945	405.25
356.172	393.25
356.399	382.25
356.626	402.25
356.853	383.25
357.08	375.25
357.307	358.25
357.534	367.25
357.761	403.25
357.988	359.25
358.215	380.25
358.441	375.25
358.668	391.25
358.895	388.25
359.122	392.25
359.349	394.25
359.576	425.25
359.802	427.25
360.029	468.25
360.256	484.25
360.483	460.25
360.709	427.25
360.936	402.25
361.163	416.25
361.39	411.25
361.616	397.25
361.843	391.25
362.07	409.25
362.296	416.25
362.523	420.25
362.749	406.25
362.976	420.25
363.203	400.25
363.429	386.25
363.656	406.25
363.882	385.25
364.109	406.25
364.335	378.25
364.562	375.25
364.788	376.25
365.015	371.25
365.241	402.25
365.468	405.25
365.694	391.25
365.92	397.25
366.147	400.25
366.373	390.25
366.599	380.25
366.826	395.25
367.052	376.25
367.278	387.25
367.505	389.25
367.731	392.25
367.957	392.25
368.184	380.25
368.41	393.25
368.636	410.25
368.862	387.25
369.089	386.25
369.315	366.25
369.541	368.25
369.767	392.25
369.993	384.25
370.219	384.25
370.445	373.25
370.672	380.25
370.898	359.25
371.124	370.25
371.35	387.25
371.576	370.25
371.802	378.25
372.028	373.25
372.254	392.25
372.48	386.25
372.706	378.25
372.932	389.25
373.158	376.25
373.384	381.25
373.61	398.25
373.835	386.25
374.061	385.25
374.287	393.25
374.513	381.25
374.739	384.25
374.965	365.25
375.191	385.25
375.416	368.25
375.642	394.25
375.868	407.25
376.094	394.25
376.319	388.25
376.545	383.25
376.771	380.25
376.997	377.25
377.222	380.25
377.448	399.25
377.674	369.25
377.899	371.25
378.125	377.25
378.35	381.25
378.576	384.25
378.802	376.25
379.027	382.25
379.253	368.25
379.478	370.25
379.704	358.25
379.929	358.25
380.155	385.25
380.38	377.25
380.606	375.25
380.831	368.25
381.057	385.25
381.282	383.25
381.507	368.25
381.733	373.25
381.958	357.25
382.184	377.25
382.409	373.25
382.634	400.25
382.86	384.25
383.085	390.25
383.31	385.25
383.535	395.25
383.761	373.25
383.986	363.25
384.211	381.25
384.436	385.25
384.662	391.25
384.887	398.25
385.112	399.25
385.337	392.25
385.562	403.25
385.787	391.25
386.013	407.25
386.238	408.25
386.463	408.25
386.688	407.25
386.913	398.25
387.138	404.25
387.363	405.25
387.588	384.25
387.813	396.25
388.038	389.25
388.263	401.25
388.488	376.25
388.713	401.25
388.938	406.25
389.163	412.25
389.387	393.25
389.612	401.25
389.837	415.25
390.062	404.25
390.287	393.25
390.512	404.25
390.736	393.25
390.961	372.25
391.186	391.25
391.411	375.25
391.636	397.25
391.86	422.25
392.085	402.25
392.31	401.25
392.534	428.25
392.759	403.25
392.984	402.25
393.208	392.25
393.433	410.25
393.658	387.25
393.882	379.25
394.107	397.25
394.331	404.25
394.556	409.25
394.78	398.25
395.005	407.25
395.229	398.25
395.454	415.25
395.678	406.25
395.903	394.25
396.127	423.25
396.352	433.25
396.576	429.25
396.801	411.25
397.025	409.25
397.249	406.25
397.474	414.25
397.698	427.25
397.922	454.25
398.147	457.25
398.371	460.25
398.595	429.25
398.82	424.25
399.044	460.25
399.268	470.25
399.492	481.25
399.717	492.25
399.941	502.25
400.165	539.25
400.389	553.25
400.613	497.25
400.837	504.25
401.062	473.25
401.286	460.25
401.51	468.25
401.734	456.25
401.958	443.25
402.182	446.25
402.406	471.25
402.63	466.25
402.854	474.25
403.078	460.25
403.302	460.25
403.526	465.25
403.75	448.25
403.974	474.25
404.198	458.25
404.422	480.25
404.645	478.25
404.869	476.25
405.093	483.25
405.317	523.25
405.541	515.25
405.765	524.25
405.988	499.25
406.212	493.25
406.436	511.25
406.66	536.25
406.883	515.25
407.107	529.25
407.331	576.25
407.555	622.25
407.778	620.25
408.002	567.25
408.226	514.25
408.449	515.25
408.673	529.25
408.896	535.25
409.12	562.25
409.344	540.25
409.567	481.25
409.791	464.25
410.014	464.25
410.238	477.25
410.461	471.25
410.685	487.25
410.908	480.25
411.132	499.25
411.355	540.25
411.578	549.25
411.802	469.25
412.025	447.25
412.249	467.25
412.472	460.25
412.695	477.25
412.919	484.25
413.142	457.25
413.365	447.25
413.589	444.25
413.812	448.25
414.035	445.25
414.258	442.25
414.482	424.25
414.705	440.25
414.928	403.25
415.151	406.25
415.374	437.25
415.597	431.25
415.821	449.25
416.044	444.25
416.267	437.25
416.49	431.25
416.713	435.25
416.936	439.25
417.159	432.25
417.382	428.25
417.605	432.25
417.828	447.25
418.051	463.25
418.274	441.25
418.497	447.25
418.72	426.25
418.943	427.25
419.166	441.25
419.389	455.25
419.611	472.25
419.834	479.25
420.057	449.25
420.28	450.25
420.503	453.25
420.726	449.25
420.948	467.25
421.171	525.25
421.394	539.25
421.617	476.25
421.839	449.25
422.062	455.25
422.285	482.25
422.507	537.25
422.73	602.25
422.953	563.25
423.175	503.25
423.398	481.25
423.621	506.25
423.843	490.25
424.066	503.25
424.288	491.25
424.511	516.25
424.733	551.25
424.956	633.25
425.178	601.25
425.401	625.25
425.623	633.25
425.846	542.25
426.068	517.25
426.291	505.25
426.513	502.25
426.735	512.25
426.958	547.25
427.18	637.25
427.402	731.25
427.625	845.25
427.847	717.25
428.069	610.25
428.292	553.25
428.514	519.25
428.736	501.25
428.958	458.25
429.181	473.25
429.403	468.25
429.625	476.25
429.847	485.25
430.069	579.25
430.292	564.25
430.514	478.25
430.736	479.25
430.958	459.25
431.18	467.25
431.402	439.25
431.624	454.25
431.846	444.25
432.068	441.25
432.29	447.25
432.512	397.25
432.734	418.25
432.956	453.25
433.178	461.25
433.4	460.25
433.622	455.25
433.844	441.25
434.066	419.25
434.287	432.25
434.509	443.25
434.731	460.25
434.953	472.25
435.175	456.25
435.397	483.25
435.618	491.25
435.84	556.25
436.062	639.25
436.284	714.25
436.505	595.25
436.727	521.25
436.949	470.25
437.17	460.25
437.392	449.25
437.614	490.25
437.835	513.25
438.057	605.25
438.278	697.25
438.5	683.25
438.721	746.25
438.943	735.25
439.165	605.25
439.386	531.25
439.608	517.25
439.829	499.25
440.05	532.25
440.272	588.25
440.493	555.25
440.715	494.25
440.936	469.25
441.158	474.25
441.379	457.25
441.6	475.25
441.822	512.25
442.043	557.25
442.264	607.25
442.486	673.25
442.707	566.25
442.928	518.25
443.149	534.25
443.371	537.25
443.592	575.25
443.813	683.25
444.034	712.25
444.255	599.25
444.476	534.25
444.698	506.25
444.919	471.25
445.14	612.25
445.361	548.25
445.582	526.25
445.803	589.25
446.024	695.25
446.245	713.25
446.466	655.25
446.687	551.25
446.908	509.25
447.129	501.25
447.35	477.25
447.571	465.25
447.792	464.25
448.013	456.25
448.234	486.25
448.455	538.25
448.675	658.25
448.896	741.25
449.117	640.25
449.338	616.25
449.559	685.25
449.779	792.25
450	636.25
450.221	511.25
450.442	465.25
450.662	467.25
450.883	479.25
451.104	483.25
451.324	491.25
451.545	466.25
451.766	447.25
451.986	425.25
452.207	419.25
452.428	412.25
452.648	416.25
452.869	416.25
453.089	430.25
453.31	445.25
453.53	422.25
453.751	409.25
453.971	420.25
454.192	453.25
454.412	430.25
454.633	430.25
454.853	393.25
455.073	391.25
455.294	459.25
455.514	516.25
455.734	495.25
455.955	427.25
456.175	384.25
456.395	401.25
456.616	386.25
456.836	378.25
457.056	379.25
457.276	380.25
457.497	402.25
457.717	404.25
457.937	393.25
458.157	392.25
458.377	393.25
458.598	408.25
458.818	475.25
459.038	568.25
459.258	584.25
459.478	480.25
459.698	428.25
459.918	426.25
460.138	419.25
460.358	440.25
460.578	423.25
460.798	433.25
461.018	425.25
461.238	433.25
461.458	420.25
461.678	435.25
461.898	437.25
462.118	424.25
462.338	464.25
462.558	435.25
462.777	450.25
462.997	472.25
463.217	446.25
463.437	474.25
463.657	447.25
463.876	452.25
464.096	460.25
464.316	446.25
464.536	480.25
464.755	477.25
464.975	463.25
465.195	525.25
465.414	584.25
465.634	527.25
465.854	461.25
466.073	446.25
466.293	421.25
466.512	423.25
466.732	420.25
466.951	415.25
467.171	405.25
467.391	432.25
467.61	440.25
467.829	414.25
468.049	416.25
468.268	417.25
468.488	415.25
468.707	417.25
468.927	408.25
469.146	395.25
469.365	421.25
469.585	423.25
469.804	425.25
470.023	408.25
470.243	434.25
470.462	402.25
470.681	479.25
470.901	449.25
471.12	421.25
471.339	420.25
471.558	432.25
471.777	420.25
471.997	415.25
472.216	408.25
472.435	431.25
472.654	431.25
472.873	405.25
473.092	418.25
473.311	421.25
473.53	419.25
473.749	424.25
473.968	471.25
474.187	595.25
474.406	591.25
474.625	497.25
474.844	454.25
475.063	439.25
475.282	427.25
475.501	444.25
475.72	454.25
475.939	423.25
476.158	441.25
476.377	432.25
476.596	417.25
476.814	445.25
477.033	460.25
477.252	455.25
477.471	472.25
477.69	447.25
477.908	463.25
478.127	459.25
478.346	458.25
478.564	456.25
478.783	476.25
479.002	475.25
479.22	486.25
479.439	504.25
479.658	473.25
479.876	512.25
480.095	513.25
480.313	529.25
480.532	524.25
480.751	503.25
480.969	535.25
481.188	520.25
481.406	526.25
481.624	523.25
481.843	495.25
482.061	484.25
482.28	471.25
482.498	480.25
482.717	489.25
482.935	498.25
483.153	500.25
483.372	497.25
483.59	501.25
483.808	491.25
484.027	480.25
484.245	495.25
484.463	496.25
484.681	512.25
484.9	519.25
485.118	488.25
485.336	499.25
485.554	491.25
485.772	508.25
485.99	509.25
486.209	509.25
486.427	507.25
486.645	525.25
486.863	545.25
487.081	559.25
487.299	540.25
487.517	549.25
487.735	530.25
487.953	551.25
488.171	547.25
488.389	564.25
488.607	561.25
488.825	536.25
489.043	509.25
489.261	523.25
489.479	524.25
489.696	555.25
489.914	538.25
490.132	536.25
490.35	540.25
490.568	561.25
490.786	572.25
491.003	588.25
491.221	577.25
491.439	578.25
491.657	563.25
491.874	590.25
492.092	623.25
492.31	611.25
492.527	619.25
492.745	613.25
492.963	615.25
493.18	634.25
493.398	629.25
493.615	647.25
493.833	624.25
494.05	596.25
494.268	647.25
494.485	644.25
494.703	629.25
494.92	616.25
495.138	622.25
495.355	621.25
495.573	633.25
495.79	639.25
496.008	634.25
496.225	637.25
496.442	648.25
496.66	632.25
496.877	626.25
497.094	625.25
497.312	653.25
497.529	653.25
497.746	635.25
497.963	661.25
498.181	692.25
498.398	663.25
498.615	694.25
498.832	710.25
499.049	696.25
499.267	706.25
499.484	739.25
499.701	748.25
499.918	779.25
500.135	769.25
500.352	824.25
500.569	813.25
500.786	842.25
501.003	819.25
501.22	815.25
501.437	796.25
501.654	788.25
501.871	776.25
502.088	754.25
