Data from 1989.PennyLincolnUp.Lamp.En5.5.200Scan.071819.P2_HRD10591_17-25-25-973.txt Node
Date: Thu Jul 18 17:25:25 EDT 2019
User: cochatt
Spectrometer: HR+D1059
Trigger mode: 1
Integration Time (sec): 1.000000E-1
Scans to average: 1
Electric dark correction enabled: true
Nonlinearity correction enabled: false
Boxcar width: 0
XAxis mode: Wavelengths
Number of Pixels in Spectrum: 2048
>>>>>Begin Spectral Data<<<<<
223.165	-20.81
223.4	-20.81
223.635	-20.81
223.869	-21.81
224.104	-8.81
224.338	-11.81
224.573	-14.81
224.808	-14.81
225.042	-0.81
225.277	-4.81
225.511	-3.81
225.746	12.19
225.98	15.19
226.215	9.19
226.449	9.19
226.683	9.19
226.918	23.19
227.152	24.19
227.387	28.19
227.621	46.19
227.856	50.19
228.09	42.19
228.324	55.19
228.559	54.19
228.793	68.19
229.027	98.19
229.262	120.19
229.496	126.19
229.73	137.19
229.964	184.19
230.199	130.19
230.433	123.19
230.667	109.19
230.901	110.19
231.136	123.19
231.37	114.19
231.604	114.19
231.838	115.19
232.072	119.19
232.306	114.19
232.541	116.19
232.775	120.19
233.009	127.19
233.243	122.19
233.477	111.19
233.711	117.19
233.945	124.19
234.179	120.19
234.413	124.19
234.647	126.19
234.881	128.19
235.115	122.19
235.349	122.19
235.583	126.19
235.817	125.19
236.051	128.19
236.285	119.19
236.519	131.19
236.753	139.19
236.987	145.19
237.221	194.19
237.455	259.19
237.689	206.19
237.922	164.19
238.156	151.19
238.39	150.19
238.624	147.19
238.858	128.19
239.091	146.19
239.325	126.19
239.559	136.19
239.793	136.19
240.027	141.19
240.26	150.19
240.494	156.19
240.728	175.19
240.961	160.19
241.195	168.19
241.429	150.19
241.662	143.19
241.896	142.19
242.13	137.19
242.363	127.19
242.597	160.19
242.83	152.19
243.064	151.19
243.298	162.19
243.531	164.19
243.765	150.19
243.998	143.19
244.232	158.19
244.465	168.19
244.699	157.19
244.932	153.19
245.166	138.19
245.399	173.19
245.633	163.19
245.866	151.19
246.099	163.19
246.333	166.19
246.566	143.19
246.8	158.19
247.033	168.19
247.266	155.19
247.5	197.19
247.733	186.19
247.966	199.19
248.2	190.19
248.433	196.19
248.666	202.19
248.899	210.19
249.133	233.19
249.366	236.19
249.599	223.19
249.832	194.19
250.066	200.19
250.299	199.19
250.532	214.19
250.765	234.19
250.998	251.19
251.231	258.19
251.465	240.19
251.698	217.19
251.931	223.19
252.164	212.19
252.397	219.19
252.63	233.19
252.863	238.19
253.096	237.19
253.329	251.19
253.562	259.19
253.795	247.19
254.028	242.19
254.261	252.19
254.494	253.19
254.727	287.19
254.96	306.19
255.193	284.19
255.426	293.19
255.659	245.19
255.892	259.19
256.124	272.19
256.357	266.19
256.59	282.19
256.823	259.19
257.056	231.19
257.289	254.19
257.521	245.19
257.754	235.19
257.987	240.19
258.22	230.19
258.452	237.19
258.685	224.19
258.918	244.19
259.151	225.19
259.383	239.19
259.616	250.19
259.849	249.19
260.081	274.19
260.314	288.19
260.547	284.19
260.779	282.19
261.012	255.19
261.244	250.19
261.477	254.19
261.71	233.19
261.942	270.19
262.175	290.19
262.407	275.19
262.64	242.19
262.872	246.19
263.105	237.19
263.337	229.19
263.57	225.19
263.802	226.19
264.035	213.19
264.267	244.19
264.499	242.19
264.732	262.19
264.964	222.19
265.197	243.19
265.429	263.19
265.661	242.19
265.894	239.19
266.126	245.19
266.358	239.19
266.591	237.19
266.823	265.19
267.055	252.19
267.287	257.19
267.52	250.19
267.752	275.19
267.984	242.19
268.216	272.19
268.448	260.19
268.681	277.19
268.913	291.19
269.145	299.19
269.377	315.19
269.609	316.19
269.841	308.19
270.073	323.19
270.306	341.19
270.538	357.19
270.77	362.19
271.002	354.19
271.234	331.19
271.466	335.19
271.698	366.19
271.93	366.19
272.162	360.19
272.394	374.19
272.626	363.19
272.858	342.19
273.09	323.19
273.322	326.19
273.553	290.19
273.785	296.19
274.017	305.19
274.249	298.19
274.481	304.19
274.713	300.19
274.945	300.19
275.176	308.19
275.408	298.19
275.64	291.19
275.872	288.19
276.104	322.19
276.335	306.19
276.567	290.19
276.799	309.19
277.031	344.19
277.262	352.19
277.494	354.19
277.726	326.19
277.957	328.19
278.189	349.19
278.421	318.19
278.652	303.19
278.884	294.19
279.115	296.19
279.347	304.19
279.579	326.19
279.81	283.19
280.042	292.19
280.273	300.19
280.505	299.19
280.736	291.19
280.968	279.19
281.199	295.19
281.431	295.19
281.662	302.19
281.894	276.19
282.125	316.19
282.356	320.19
282.588	339.19
282.819	354.19
283.051	322.19
283.282	308.19
283.513	324.19
283.745	308.19
283.976	307.19
284.207	312.19
284.439	318.19
284.67	316.19
284.901	308.19
285.132	308.19
285.364	318.19
285.595	298.19
285.826	312.19
286.057	308.19
286.288	313.19
286.52	319.19
286.751	304.19
286.982	321.19
287.213	311.19
287.444	320.19
287.675	325.19
287.906	319.19
288.138	329.19
288.369	325.19
288.6	332.19
288.831	339.19
289.062	331.19
289.293	312.19
289.524	329.19
289.755	324.19
289.986	330.19
290.217	307.19
290.448	316.19
290.679	322.19
290.91	314.19
291.141	313.19
291.371	312.19
291.602	332.19
291.833	312.19
292.064	313.19
292.295	338.19
292.526	343.19
292.757	340.19
292.987	322.19
293.218	316.19
293.449	322.19
293.68	308.19
293.91	307.19
294.141	307.19
294.372	326.19
294.603	310.19
294.833	321.19
295.064	310.19
295.295	314.19
295.525	327.19
295.756	311.19
295.987	336.19
296.217	368.19
296.448	395.19
296.679	344.19
296.909	310.19
297.14	319.19
297.37	345.19
297.601	316.19
297.831	335.19
298.062	335.19
298.292	323.19
298.523	341.19
298.753	331.19
298.984	341.19
299.214	330.19
299.445	323.19
299.675	331.19
299.905	345.19
300.136	358.19
300.366	330.19
300.597	355.19
300.827	358.19
301.057	348.19
301.288	346.19
301.518	331.19
301.748	357.19
301.979	342.19
302.209	354.19
302.439	375.19
302.669	358.19
302.9	362.19
303.13	355.19
303.36	353.19
303.59	352.19
303.82	370.19
304.051	370.19
304.281	376.19
304.511	374.19
304.741	360.19
304.971	362.19
305.201	355.19
305.431	366.19
305.661	367.19
305.891	356.19
306.121	353.19
306.352	376.19
306.582	393.19
306.812	367.19
307.042	392.19
307.272	378.19
307.502	366.19
307.731	373.19
307.961	360.19
308.191	371.19
308.421	382.19
308.651	365.19
308.881	379.19
309.111	378.19
309.341	383.19
309.571	397.19
309.8	405.19
310.03	411.19
310.26	428.19
310.49	415.19
310.72	431.19
310.949	463.19
311.179	455.19
311.409	421.19
311.639	402.19
311.868	412.19
312.098	427.19
312.328	436.19
312.557	454.19
312.787	458.19
313.017	463.19
313.246	422.19
313.476	418.19
313.706	414.19
313.935	417.19
314.165	446.19
314.394	439.19
314.624	455.19
314.853	450.19
315.083	421.19
315.312	424.19
315.542	411.19
315.771	416.19
316.001	395.19
316.23	411.19
316.46	435.19
316.689	422.19
316.919	421.19
317.148	423.19
317.377	443.19
317.607	410.19
317.836	412.19
318.065	434.19
318.295	420.19
318.524	425.19
318.753	406.19
318.983	434.19
319.212	425.19
319.441	420.19
319.67	457.19
319.9	420.19
320.129	435.19
320.358	429.19
320.587	429.19
320.816	435.19
321.046	450.19
321.275	458.19
321.504	428.19
321.733	430.19
321.962	456.19
322.191	461.19
322.42	477.19
322.649	486.19
322.878	515.19
323.108	535.19
323.337	557.19
323.566	591.19
323.795	599.19
324.024	683.19
324.253	834.19
324.482	1192.19
324.71	1831.19
324.939	2630.19
325.168	2301.19
325.397	1161.19
325.626	762.19
325.855	639.19
326.084	589.19
326.313	572.19
326.542	591.19
326.77	666.19
326.999	756.19
327.228	1049.19
327.457	1643.19
327.686	1988.19
327.914	1320.19
328.143	851.19
328.372	751.19
328.6	690.19
328.829	637.19
329.058	670.19
329.287	696.19
329.515	620.19
329.744	579.19
329.972	578.19
330.201	598.19
330.43	637.19
330.658	674.19
330.887	719.19
331.115	686.19
331.344	597.19
331.572	564.19
331.801	552.19
332.03	565.19
332.258	546.19
332.486	510.19
332.715	513.19
332.943	490.19
333.172	493.19
333.4	509.19
333.629	522.19
333.857	533.19
334.085	536.19
334.314	566.19
334.542	593.19
334.771	602.19
334.999	555.19
335.227	499.19
335.455	508.19
335.684	504.19
335.912	501.19
336.14	482.19
336.369	470.19
336.597	500.19
336.825	473.19
337.053	505.19
337.281	482.19
337.51	475.19
337.738	489.19
337.966	463.19
338.194	478.19
338.422	475.19
338.65	483.19
338.878	467.19
339.106	463.19
339.334	470.19
339.562	461.19
339.79	456.19
340.018	468.19
340.246	477.19
340.474	479.19
340.702	447.19
340.93	459.19
341.158	462.19
341.386	465.19
341.614	455.19
341.842	478.19
342.07	458.19
342.298	447.19
342.526	443.19
342.754	458.19
342.981	446.19
343.209	444.19
343.437	445.19
343.665	464.19
343.893	461.19
344.12	460.19
344.348	459.19
344.576	489.19
344.804	454.19
345.031	478.19
345.259	489.19
345.487	455.19
345.714	471.19
345.942	435.19
346.17	455.19
346.397	431.19
346.625	442.19
346.853	449.19
347.08	462.19
347.308	430.19
347.535	467.19
347.763	461.19
347.99	462.19
348.218	460.19
348.445	472.19
348.673	456.19
348.9	450.19
349.128	435.19
349.355	426.19
349.583	428.19
349.81	432.19
350.037	426.19
350.265	438.19
350.492	434.19
350.72	423.19
350.947	430.19
351.174	454.19
351.402	462.19
351.629	464.19
351.856	430.19
352.083	453.19
352.311	455.19
352.538	471.19
352.765	472.19
352.992	468.19
353.22	448.19
353.447	443.19
353.674	451.19
353.901	427.19
354.128	448.19
354.355	419.19
354.583	394.19
354.81	396.19
355.037	405.19
355.264	402.19
355.491	405.19
355.718	391.19
355.945	398.19
356.172	390.19
356.399	395.19
356.626	390.19
356.853	419.19
357.08	411.19
357.307	411.19
357.534	399.19
357.761	421.19
357.988	403.19
358.215	397.19
358.441	409.19
358.668	396.19
358.895	421.19
359.122	434.19
359.349	421.19
359.576	434.19
359.802	466.19
360.029	487.19
360.256	531.19
360.483	497.19
360.709	444.19
360.936	447.19
361.163	452.19
361.39	454.19
361.616	457.19
361.843	436.19
362.07	461.19
362.296	454.19
362.523	417.19
362.749	434.19
362.976	426.19
363.203	425.19
363.429	418.19
363.656	423.19
363.882	413.19
364.109	407.19
364.335	434.19
364.562	425.19
364.788	409.19
365.015	400.19
365.241	424.19
365.468	428.19
365.694	423.19
365.92	401.19
366.147	407.19
366.373	406.19
366.599	406.19
366.826	414.19
367.052	435.19
367.278	414.19
367.505	421.19
367.731	396.19
367.957	403.19
368.184	404.19
368.41	423.19
368.636	425.19
368.862	433.19
369.089	410.19
369.315	398.19
369.541	402.19
369.767	404.19
369.993	426.19
370.219	410.19
370.445	406.19
370.672	386.19
370.898	405.19
371.124	410.19
371.35	431.19
371.576	412.19
371.802	419.19
372.028	399.19
372.254	377.19
372.48	409.19
372.706	389.19
372.932	411.19
373.158	422.19
373.384	410.19
373.61	410.19
373.835	415.19
374.061	419.19
374.287	392.19
374.513	417.19
374.739	422.19
374.965	399.19
375.191	394.19
375.416	408.19
375.642	399.19
375.868	400.19
376.094	426.19
376.319	403.19
376.545	390.19
376.771	395.19
376.997	381.19
377.222	398.19
377.448	391.19
377.674	401.19
377.899	404.19
378.125	391.19
378.35	399.19
378.576	385.19
378.802	374.19
379.027	382.19
379.253	393.19
379.478	387.19
379.704	375.19
379.929	402.19
380.155	390.19
380.38	404.19
380.606	390.19
380.831	394.19
381.057	397.19
381.282	396.19
381.507	393.19
381.733	394.19
381.958	389.19
382.184	398.19
382.409	414.19
382.634	391.19
382.86	412.19
383.085	388.19
383.31	393.19
383.535	396.19
383.761	412.19
383.986	415.19
384.211	428.19
384.436	426.19
384.662	418.19
384.887	423.19
385.112	422.19
385.337	414.19
385.562	412.19
385.787	424.19
386.013	427.19
386.238	426.19
386.463	435.19
386.688	454.19
386.913	414.19
387.138	391.19
387.363	434.19
387.588	403.19
387.813	415.19
388.038	423.19
388.263	424.19
388.488	415.19
388.713	406.19
388.938	421.19
389.163	411.19
389.387	442.19
389.612	424.19
389.837	422.19
390.062	429.19
390.287	411.19
390.512	420.19
390.736	428.19
390.961	421.19
391.186	438.19
391.411	436.19
391.636	434.19
391.86	436.19
392.085	436.19
392.31	424.19
392.534	428.19
392.759	447.19
392.984	438.19
393.208	417.19
393.433	418.19
393.658	419.19
393.882	424.19
394.107	442.19
394.331	430.19
394.556	431.19
394.78	421.19
395.005	420.19
395.229	436.19
395.454	423.19
395.678	431.19
395.903	438.19
396.127	445.19
396.352	463.19
396.576	452.19
396.801	420.19
397.025	429.19
397.249	451.19
397.474	460.19
397.698	442.19
397.922	458.19
398.147	475.19
398.371	476.19
398.595	471.19
398.82	466.19
399.044	483.19
399.268	497.19
399.492	498.19
399.717	528.19
399.941	550.19
400.165	587.19
400.389	567.19
400.613	535.19
400.837	524.19
401.062	507.19
401.286	484.19
401.51	477.19
401.734	477.19
401.958	478.19
402.182	492.19
402.406	502.19
402.63	482.19
402.854	494.19
403.078	494.19
403.302	489.19
403.526	482.19
403.75	478.19
403.974	491.19
404.198	491.19
404.422	480.19
404.645	513.19
404.869	510.19
405.093	568.19
405.317	578.19
405.541	610.19
405.765	565.19
405.988	526.19
406.212	544.19
406.436	546.19
406.66	549.19
406.883	553.19
407.107	580.19
407.331	624.19
407.555	667.19
407.778	656.19
408.002	597.19
408.226	560.19
408.449	562.19
408.673	530.19
408.896	564.19
409.12	624.19
409.344	578.19
409.567	530.19
409.791	495.19
410.014	490.19
410.238	513.19
410.461	500.19
410.685	488.19
410.908	522.19
411.132	554.19
411.355	563.19
411.578	540.19
411.802	506.19
412.025	484.19
412.249	533.19
412.472	541.19
412.695	564.19
412.919	555.19
413.142	511.19
413.365	481.19
413.589	485.19
413.812	490.19
414.035	467.19
414.258	457.19
414.482	455.19
414.705	465.19
414.928	461.19
415.151	472.19
415.374	454.19
415.597	473.19
415.821	454.19
416.044	444.19
416.267	458.19
416.49	457.19
416.713	462.19
416.936	463.19
417.159	483.19
417.382	482.19
417.605	475.19
417.828	476.19
418.051	489.19
418.274	494.19
418.497	467.19
418.72	470.19
418.943	458.19
419.166	485.19
419.389	471.19
419.611	501.19
419.834	494.19
420.057	506.19
420.28	514.19
420.503	488.19
420.726	497.19
420.948	518.19
421.171	547.19
421.394	567.19
421.617	518.19
421.839	512.19
422.062	479.19
422.285	495.19
422.507	564.19
422.73	678.19
422.953	630.19
423.175	529.19
423.398	549.19
423.621	511.19
423.843	527.19
424.066	567.19
424.288	527.19
424.511	579.19
424.733	634.19
424.956	698.19
425.178	662.19
425.401	664.19
425.623	666.19
425.846	585.19
426.068	519.19
426.291	534.19
426.513	526.19
426.735	569.19
426.958	595.19
427.18	674.19
427.402	826.19
427.625	895.19
427.847	813.19
428.069	678.19
428.292	627.19
428.514	540.19
428.736	517.19
428.958	519.19
429.181	512.19
429.403	492.19
429.625	511.19
429.847	538.19
430.069	622.19
430.292	606.19
430.514	506.19
430.736	508.19
430.958	473.19
431.18	484.19
431.402	462.19
431.624	467.19
431.846	456.19
432.068	450.19
432.29	452.19
432.512	461.19
432.734	464.19
432.956	483.19
433.178	481.19
433.4	476.19
433.622	479.19
433.844	483.19
434.066	469.19
434.287	475.19
434.509	457.19
434.731	454.19
434.953	470.19
435.175	483.19
435.397	547.19
435.618	551.19
435.84	595.19
436.062	702.19
436.284	746.19
436.505	632.19
436.727	570.19
436.949	504.19
437.17	484.19
437.392	519.19
437.614	540.19
437.835	553.19
438.057	636.19
438.278	769.19
438.5	760.19
438.721	805.19
438.943	776.19
439.165	611.19
439.386	582.19
439.608	566.19
439.829	558.19
440.05	594.19
440.272	628.19
440.493	586.19
440.715	548.19
440.936	482.19
441.158	487.19
441.379	514.19
441.6	525.19
441.822	551.19
442.043	587.19
442.264	683.19
442.486	716.19
442.707	596.19
442.928	543.19
443.149	564.19
443.371	587.19
443.592	630.19
443.813	725.19
444.034	798.19
444.255	642.19
444.476	564.19
444.698	553.19
444.919	510.19
445.14	640.19
445.361	585.19
445.582	605.19
445.803	691.19
446.024	762.19
446.245	789.19
446.466	724.19
446.687	608.19
446.908	551.19
447.129	520.19
447.35	521.19
447.571	485.19
447.792	496.19
448.013	515.19
448.234	526.19
448.455	570.19
448.675	702.19
448.896	804.19
449.117	678.19
449.338	636.19
449.559	767.19
449.779	820.19
450	702.19
450.221	553.19
450.442	521.19
450.662	490.19
450.883	505.19
451.104	520.19
451.324	510.19
451.545	470.19
451.766	454.19
451.986	452.19
452.207	445.19
452.428	451.19
452.648	443.19
452.869	454.19
453.089	446.19
453.31	465.19
453.53	442.19
453.751	442.19
453.971	462.19
454.192	479.19
454.412	447.19
454.633	435.19
454.853	446.19
455.073	451.19
455.294	460.19
455.514	523.19
455.734	523.19
455.955	460.19
456.175	429.19
456.395	403.19
456.616	426.19
456.836	418.19
457.056	414.19
457.276	409.19
457.497	426.19
457.717	430.19
457.937	434.19
458.157	428.19
458.377	430.19
458.598	447.19
458.818	517.19
459.038	617.19
459.258	628.19
459.478	536.19
459.698	491.19
459.918	450.19
460.138	464.19
460.358	460.19
460.578	437.19
460.798	453.19
461.018	457.19
461.238	471.19
461.458	464.19
461.678	438.19
461.898	460.19
462.118	460.19
462.338	460.19
462.558	479.19
462.777	476.19
462.997	499.19
463.217	474.19
463.437	487.19
463.657	470.19
463.876	474.19
464.096	489.19
464.316	505.19
464.536	488.19
464.755	489.19
464.975	484.19
465.195	550.19
465.414	624.19
465.634	547.19
465.854	477.19
466.073	486.19
466.293	474.19
466.512	438.19
466.732	421.19
466.951	446.19
467.171	438.19
467.391	449.19
467.61	458.19
467.829	461.19
468.049	441.19
468.268	447.19
468.488	461.19
468.707	425.19
468.927	439.19
469.146	443.19
469.365	451.19
469.585	438.19
469.804	445.19
470.023	481.19
470.243	464.19
470.462	459.19
470.681	488.19
470.901	475.19
471.12	449.19
471.339	443.19
471.558	474.19
471.777	455.19
471.997	430.19
472.216	451.19
472.435	492.19
472.654	483.19
472.873	473.19
473.092	449.19
473.311	458.19
473.53	456.19
473.749	467.19
473.968	519.19
474.187	612.19
474.406	660.19
474.625	526.19
474.844	471.19
475.063	452.19
475.282	454.19
475.501	466.19
475.72	486.19
475.939	460.19
476.158	456.19
476.377	467.19
476.596	452.19
476.814	475.19
477.033	461.19
477.252	486.19
477.471	458.19
477.69	470.19
477.908	508.19
478.127	462.19
478.346	487.19
478.564	483.19
478.783	504.19
479.002	503.19
479.22	492.19
479.439	506.19
479.658	562.19
479.876	549.19
480.095	548.19
480.313	578.19
480.532	575.19
480.751	547.19
480.969	570.19
481.188	639.19
481.406	685.19
481.624	603.19
481.843	553.19
482.061	554.19
482.28	544.19
482.498	543.19
482.717	518.19
482.935	547.19
483.153	536.19
483.372	535.19
483.59	538.19
483.808	519.19
484.027	536.19
484.245	541.19
484.463	529.19
484.681	544.19
484.9	539.19
485.118	534.19
485.336	540.19
485.554	560.19
485.772	550.19
485.99	551.19
486.209	555.19
486.427	556.19
486.645	558.19
486.863	594.19
487.081	562.19
487.299	571.19
487.517	562.19
487.735	541.19
487.953	579.19
488.171	544.19
488.389	571.19
488.607	576.19
488.825	571.19
489.043	591.19
489.261	573.19
489.479	577.19
489.696	596.19
489.914	601.19
490.132	604.19
490.35	618.19
490.568	606.19
490.786	631.19
491.003	631.19
491.221	635.19
491.439	636.19
491.657	646.19
491.874	655.19
492.092	651.19
492.31	660.19
492.527	678.19
492.745	683.19
492.963	657.19
493.18	678.19
493.398	676.19
493.615	712.19
493.833	687.19
494.05	689.19
494.268	678.19
494.485	675.19
494.703	683.19
494.92	681.19
495.138	680.19
495.355	686.19
495.573	671.19
495.79	693.19
496.008	704.19
496.225	664.19
496.442	662.19
496.66	697.19
496.877	676.19
497.094	688.19
497.312	683.19
497.529	682.19
497.746	715.19
497.963	698.19
498.181	729.19
498.398	733.19
498.615	740.19
498.832	743.19
499.049	765.19
499.267	759.19
499.484	777.19
499.701	792.19
499.918	814.19
500.135	842.19
500.352	864.19
500.569	876.19
500.786	910.19
501.003	863.19
501.22	844.19
501.437	858.19
501.654	826.19
501.871	831.19
