Data from 1989.PennyLincolnUp.Lamp.En5.5.200Scan.071819.P2_HRD10591_17-23-20-972.txt Node
Date: Thu Jul 18 17:23:20 EDT 2019
User: cochatt
Spectrometer: HR+D1059
Trigger mode: 1
Integration Time (sec): 1.000000E-1
Scans to average: 1
Electric dark correction enabled: true
Nonlinearity correction enabled: false
Boxcar width: 0
XAxis mode: Wavelengths
Number of Pixels in Spectrum: 2048
>>>>>Begin Spectral Data<<<<<
223.165	-28.31
223.4	-28.31
223.635	-28.31
223.869	-17.31
224.104	-12.31
224.338	1.69
224.573	-7.31
224.808	-9.31
225.042	-15.31
225.277	-9.31
225.511	-16.31
225.746	1.69
225.98	11.69
226.215	6.69
226.449	12.69
226.683	20.69
226.918	30.69
227.152	29.69
227.387	26.69
227.621	31.69
227.856	29.69
228.09	44.69
228.324	60.69
228.559	58.69
228.793	67.69
229.027	88.69
229.262	112.69
229.496	101.69
229.73	123.69
229.964	126.69
230.199	123.69
230.433	107.69
230.667	105.69
230.901	105.69
231.136	116.69
231.37	99.69
231.604	118.69
231.838	113.69
232.072	107.69
232.306	106.69
232.541	97.69
232.775	111.69
233.009	103.69
233.243	122.69
233.477	106.69
233.711	120.69
233.945	119.69
234.179	106.69
234.413	111.69
234.647	115.69
234.881	112.69
235.115	109.69
235.349	100.69
235.583	107.69
235.817	116.69
236.051	116.69
236.285	133.69
236.519	119.69
236.753	119.69
236.987	141.69
237.221	164.69
237.455	206.69
237.689	179.69
237.922	125.69
238.156	135.69
238.39	127.69
238.624	126.69
238.858	117.69
239.091	129.69
239.325	118.69
239.559	110.69
239.793	118.69
240.027	132.69
240.26	141.69
240.494	148.69
240.728	124.69
240.961	141.69
241.195	139.69
241.429	131.69
241.662	130.69
241.896	120.69
242.13	123.69
242.363	140.69
242.597	126.69
242.83	145.69
243.064	128.69
243.298	125.69
243.531	120.69
243.765	130.69
243.998	137.69
244.232	126.69
244.465	134.69
244.699	147.69
244.932	129.69
245.166	140.69
245.399	129.69
245.633	136.69
245.866	137.69
246.099	140.69
246.333	142.69
246.566	146.69
246.8	134.69
247.033	151.69
247.266	144.69
247.5	172.69
247.733	172.69
247.966	168.69
248.2	159.69
248.433	158.69
248.666	171.69
248.899	180.69
249.133	169.69
249.366	196.69
249.599	174.69
249.832	165.69
250.066	166.69
250.299	179.69
250.532	187.69
250.765	173.69
250.998	196.69
251.231	223.69
251.465	213.69
251.698	196.69
251.931	192.69
252.164	182.69
252.397	195.69
252.63	183.69
252.863	195.69
253.096	193.69
253.329	201.69
253.562	204.69
253.795	203.69
254.028	210.69
254.261	217.69
254.494	213.69
254.727	241.69
254.96	261.69
255.193	232.69
255.426	228.69
255.659	225.69
255.892	208.69
256.124	203.69
256.357	219.69
256.59	214.69
256.823	191.69
257.056	203.69
257.289	195.69
257.521	186.69
257.754	197.69
257.987	195.69
258.22	195.69
258.452	193.69
258.685	205.69
258.918	212.69
259.151	209.69
259.383	189.69
259.616	222.69
259.849	209.69
260.081	231.69
260.314	248.69
260.547	240.69
260.779	234.69
261.012	221.69
261.244	212.69
261.477	205.69
261.71	221.69
261.942	225.69
262.175	232.69
262.407	211.69
262.64	200.69
262.872	201.69
263.105	215.69
263.337	209.69
263.57	218.69
263.802	211.69
264.035	205.69
264.267	208.69
264.499	202.69
264.732	199.69
264.964	201.69
265.197	198.69
265.429	225.69
265.661	197.69
265.894	200.69
266.126	215.69
266.358	212.69
266.591	210.69
266.823	204.69
267.055	210.69
267.287	213.69
267.52	217.69
267.752	214.69
267.984	218.69
268.216	211.69
268.448	215.69
268.681	220.69
268.913	232.69
269.145	259.69
269.377	252.69
269.609	251.69
269.841	252.69
270.073	257.69
270.306	261.69
270.538	281.69
270.77	268.69
271.002	270.69
271.234	252.69
271.466	275.69
271.698	286.69
271.93	288.69
272.162	300.69
272.394	295.69
272.626	269.69
272.858	263.69
273.09	267.69
273.322	256.69
273.553	251.69
273.785	261.69
274.017	235.69
274.249	249.69
274.481	236.69
274.713	236.69
274.945	248.69
275.176	258.69
275.408	245.69
275.64	247.69
275.872	246.69
276.104	256.69
276.335	250.69
276.567	252.69
276.799	284.69
277.031	289.69
277.262	289.69
277.494	280.69
277.726	273.69
277.957	283.69
278.189	257.69
278.421	257.69
278.652	268.69
278.884	249.69
279.115	248.69
279.347	251.69
279.579	246.69
279.81	255.69
280.042	244.69
280.273	277.69
280.505	261.69
280.736	251.69
280.968	270.69
281.199	252.69
281.431	251.69
281.662	251.69
281.894	258.69
282.125	246.69
282.356	247.69
282.588	279.69
282.819	271.69
283.051	281.69
283.282	244.69
283.513	263.69
283.745	242.69
283.976	253.69
284.207	262.69
284.439	259.69
284.67	247.69
284.901	265.69
285.132	256.69
285.364	269.69
285.595	285.69
285.826	245.69
286.057	264.69
286.288	265.69
286.52	286.69
286.751	269.69
286.982	259.69
287.213	268.69
287.444	265.69
287.675	283.69
287.906	273.69
288.138	279.69
288.369	265.69
288.6	288.69
288.831	287.69
289.062	276.69
289.293	267.69
289.524	261.69
289.755	242.69
289.986	272.69
290.217	265.69
290.448	257.69
290.679	278.69
290.91	275.69
291.141	261.69
291.371	265.69
291.602	278.69
291.833	258.69
292.064	278.69
292.295	267.69
292.526	274.69
292.757	275.69
292.987	274.69
293.218	268.69
293.449	272.69
293.68	281.69
293.91	269.69
294.141	283.69
294.372	272.69
294.603	259.69
294.833	273.69
295.064	259.69
295.295	279.69
295.525	280.69
295.756	266.69
295.987	275.69
296.217	293.69
296.448	305.69
296.679	281.69
296.909	267.69
297.14	279.69
297.37	283.69
297.601	276.69
297.831	272.69
298.062	280.69
298.292	265.69
298.523	277.69
298.753	290.69
298.984	286.69
299.214	263.69
299.445	295.69
299.675	290.69
299.905	282.69
300.136	285.69
300.366	306.69
300.597	290.69
300.827	293.69
301.057	305.69
301.288	307.69
301.518	304.69
301.748	281.69
301.979	290.69
302.209	296.69
302.439	291.69
302.669	309.69
302.9	316.69
303.13	307.69
303.36	301.69
303.59	316.69
303.82	306.69
304.051	294.69
304.281	305.69
304.511	303.69
304.741	308.69
304.971	305.69
305.201	297.69
305.431	309.69
305.661	292.69
305.891	296.69
306.121	319.69
306.352	300.69
306.582	313.69
306.812	309.69
307.042	308.69
307.272	312.69
307.502	295.69
307.731	324.69
307.961	329.69
308.191	290.69
308.421	318.69
308.651	321.69
308.881	323.69
309.111	309.69
309.341	309.69
309.571	316.69
309.8	317.69
310.03	324.69
310.26	348.69
310.49	335.69
310.72	342.69
310.949	346.69
311.179	336.69
311.409	348.69
311.639	334.69
311.868	347.69
312.098	344.69
312.328	372.69
312.557	369.69
312.787	372.69
313.017	357.69
313.246	357.69
313.476	341.69
313.706	340.69
313.935	330.69
314.165	347.69
314.394	352.69
314.624	349.69
314.853	330.69
315.083	338.69
315.312	333.69
315.542	329.69
315.771	350.69
316.001	337.69
316.23	329.69
316.46	337.69
316.689	356.69
316.919	339.69
317.148	340.69
317.377	357.69
317.607	356.69
317.836	338.69
318.065	329.69
318.295	370.69
318.524	353.69
318.753	343.69
318.983	353.69
319.212	345.69
319.441	351.69
319.67	360.69
319.9	343.69
320.129	349.69
320.358	343.69
320.587	347.69
320.816	357.69
321.046	367.69
321.275	378.69
321.504	349.69
321.733	361.69
321.962	371.69
322.191	347.69
322.42	381.69
322.649	387.69
322.878	403.69
323.108	406.69
323.337	415.69
323.566	415.69
323.795	469.69
324.024	463.69
324.253	553.69
324.482	796.69
324.71	1172.69
324.939	1677.69
325.168	1441.69
325.397	757.69
325.626	544.69
325.855	460.69
326.084	443.69
326.313	428.69
326.542	437.69
326.77	451.69
326.999	549.69
327.228	700.69
327.457	1066.69
327.686	1259.69
327.914	832.69
328.143	554.69
328.372	488.69
328.6	461.69
328.829	460.69
329.058	483.69
329.287	487.69
329.515	454.69
329.744	427.69
329.972	418.69
330.201	430.69
330.43	421.69
330.658	460.69
330.887	482.69
331.115	499.69
331.344	442.69
331.572	425.69
331.801	437.69
332.03	436.69
332.258	431.69
332.486	395.69
332.715	387.69
332.943	394.69
333.172	397.69
333.4	391.69
333.629	400.69
333.857	409.69
334.085	418.69
334.314	408.69
334.542	415.69
334.771	419.69
334.999	411.69
335.227	400.69
335.455	407.69
335.684	401.69
335.912	402.69
336.14	399.69
336.369	394.69
336.597	415.69
336.825	395.69
337.053	407.69
337.281	405.69
337.51	377.69
337.738	391.69
337.966	383.69
338.194	396.69
338.422	401.69
338.65	385.69
338.878	405.69
339.106	388.69
339.334	387.69
339.562	387.69
339.79	388.69
340.018	379.69
340.246	377.69
340.474	402.69
340.702	397.69
340.93	375.69
341.158	388.69
341.386	381.69
341.614	396.69
341.842	385.69
342.07	391.69
342.298	387.69
342.526	367.69
342.754	361.69
342.981	369.69
343.209	379.69
343.437	360.69
343.665	393.69
343.893	393.69
344.12	384.69
344.348	392.69
344.576	382.69
344.804	400.69
345.031	372.69
345.259	391.69
345.487	400.69
345.714	403.69
345.942	383.69
346.17	378.69
346.397	371.69
346.625	378.69
346.853	377.69
347.08	362.69
347.308	372.69
347.535	389.69
347.763	369.69
347.99	381.69
348.218	401.69
348.445	380.69
348.673	387.69
348.9	374.69
349.128	361.69
349.355	367.69
349.583	355.69
349.81	376.69
350.037	360.69
350.265	367.69
350.492	359.69
350.72	370.69
350.947	357.69
351.174	367.69
351.402	375.69
351.629	377.69
351.856	359.69
352.083	370.69
352.311	377.69
352.538	396.69
352.765	380.69
352.992	360.69
353.22	383.69
353.447	361.69
353.674	350.69
353.901	355.69
354.128	360.69
354.355	361.69
354.583	341.69
354.81	376.69
355.037	364.69
355.264	351.69
355.491	334.69
355.718	338.69
355.945	333.69
356.172	334.69
356.399	339.69
356.626	334.69
356.853	348.69
357.08	326.69
357.307	360.69
357.534	352.69
357.761	337.69
357.988	355.69
358.215	326.69
358.441	361.69
358.668	337.69
358.895	332.69
359.122	361.69
359.349	375.69
359.576	353.69
359.802	383.69
360.029	395.69
360.256	401.69
360.483	400.69
360.709	365.69
360.936	355.69
361.163	336.69
361.39	360.69
361.616	364.69
361.843	361.69
362.07	387.69
362.296	360.69
362.523	375.69
362.749	355.69
362.976	362.69
363.203	354.69
363.429	362.69
363.656	368.69
363.882	341.69
364.109	343.69
364.335	353.69
364.562	356.69
364.788	338.69
365.015	339.69
365.241	341.69
365.468	360.69
365.694	360.69
365.92	355.69
366.147	351.69
366.373	342.69
366.599	327.69
366.826	358.69
367.052	370.69
367.278	348.69
367.505	325.69
367.731	343.69
367.957	349.69
368.184	352.69
368.41	357.69
368.636	362.69
368.862	359.69
369.089	367.69
369.315	353.69
369.541	338.69
369.767	346.69
369.993	346.69
370.219	352.69
370.445	351.69
370.672	344.69
370.898	329.69
371.124	336.69
371.35	342.69
371.576	328.69
371.802	334.69
372.028	344.69
372.254	356.69
372.48	355.69
372.706	372.69
372.932	346.69
373.158	356.69
373.384	337.69
373.61	347.69
373.835	356.69
374.061	343.69
374.287	369.69
374.513	364.69
374.739	343.69
374.965	362.69
375.191	362.69
375.416	357.69
375.642	339.69
375.868	346.69
376.094	345.69
376.319	346.69
376.545	344.69
376.771	361.69
376.997	358.69
377.222	357.69
377.448	351.69
377.674	366.69
377.899	363.69
378.125	329.69
378.35	344.69
378.576	348.69
378.802	339.69
379.027	345.69
379.253	345.69
379.478	341.69
379.704	346.69
379.929	341.69
380.155	340.69
380.38	341.69
380.606	339.69
380.831	357.69
381.057	326.69
381.282	350.69
381.507	365.69
381.733	359.69
381.958	348.69
382.184	353.69
382.409	340.69
382.634	354.69
382.86	353.69
383.085	351.69
383.31	344.69
383.535	352.69
383.761	355.69
383.986	371.69
384.211	367.69
384.436	348.69
384.662	357.69
384.887	360.69
385.112	366.69
385.337	367.69
385.562	373.69
385.787	377.69
386.013	391.69
386.238	380.69
386.463	369.69
386.688	381.69
386.913	377.69
387.138	361.69
387.363	383.69
387.588	363.69
387.813	391.69
388.038	375.69
388.263	366.69
388.488	373.69
388.713	363.69
388.938	367.69
389.163	365.69
389.387	373.69
389.612	377.69
389.837	360.69
390.062	360.69
390.287	385.69
390.512	385.69
390.736	359.69
390.961	365.69
391.186	369.69
391.411	369.69
391.636	380.69
391.86	380.69
392.085	385.69
392.31	370.69
392.534	391.69
392.759	374.69
392.984	383.69
393.208	360.69
393.433	371.69
393.658	377.69
393.882	388.69
394.107	377.69
394.331	385.69
394.556	361.69
394.78	367.69
395.005	375.69
395.229	367.69
395.454	371.69
395.678	374.69
395.903	389.69
396.127	403.69
396.352	411.69
396.576	407.69
396.801	384.69
397.025	400.69
397.249	387.69
397.474	396.69
397.698	380.69
397.922	400.69
398.147	419.69
398.371	407.69
398.595	424.69
398.82	410.69
399.044	432.69
399.268	423.69
399.492	442.69
399.717	455.69
399.941	487.69
400.165	484.69
400.389	511.69
400.613	474.69
400.837	441.69
401.062	423.69
401.286	431.69
401.51	418.69
401.734	409.69
401.958	411.69
402.182	427.69
402.406	413.69
402.63	405.69
402.854	419.69
403.078	419.69
403.302	429.69
403.526	437.69
403.75	418.69
403.974	408.69
404.198	415.69
404.422	423.69
404.645	423.69
404.869	410.69
405.093	436.69
405.317	454.69
405.541	464.69
405.765	469.69
405.988	422.69
406.212	450.69
406.436	460.69
406.66	475.69
406.883	459.69
407.107	479.69
407.331	495.69
407.555	578.69
407.778	570.69
408.002	520.69
408.226	474.69
408.449	468.69
408.673	463.69
408.896	509.69
409.12	522.69
409.344	495.69
409.567	441.69
409.791	440.69
410.014	418.69
410.238	449.69
410.461	428.69
410.685	443.69
410.908	419.69
411.132	456.69
411.355	502.69
411.578	490.69
411.802	451.69
412.025	409.69
412.249	421.69
412.472	410.69
412.695	421.69
412.919	419.69
413.142	412.69
413.365	395.69
413.589	422.69
413.812	408.69
414.035	379.69
414.258	397.69
414.482	387.69
414.705	419.69
414.928	421.69
415.151	412.69
415.374	391.69
415.597	393.69
415.821	402.69
416.044	390.69
416.267	389.69
416.49	395.69
416.713	417.69
416.936	396.69
417.159	419.69
417.382	414.69
417.605	403.69
417.828	393.69
418.051	404.69
418.274	407.69
418.497	402.69
418.72	405.69
418.943	385.69
419.166	406.69
419.389	433.69
419.611	411.69
419.834	414.69
420.057	424.69
420.28	413.69
420.503	389.69
420.726	403.69
420.948	432.69
421.171	458.69
421.394	497.69
421.617	441.69
421.839	432.69
422.062	426.69
422.285	439.69
422.507	473.69
422.73	552.69
422.953	535.69
423.175	451.69
423.398	443.69
423.621	440.69
423.843	449.69
424.066	448.69
424.288	434.69
424.511	464.69
424.733	513.69
424.956	570.69
425.178	543.69
425.401	552.69
425.623	577.69
425.846	482.69
426.068	455.69
426.291	457.69
426.513	440.69
426.735	458.69
426.958	476.69
427.18	560.69
427.402	665.69
427.625	718.69
427.847	633.69
428.069	514.69
428.292	483.69
428.514	416.69
428.736	422.69
428.958	426.69
429.181	428.69
429.403	429.69
429.625	435.69
429.847	447.69
430.069	501.69
430.292	527.69
430.514	443.69
430.736	430.69
430.958	399.69
431.18	384.69
431.402	417.69
431.624	415.69
431.846	397.69
432.068	396.69
432.29	419.69
432.512	405.69
432.734	415.69
432.956	396.69
433.178	411.69
433.4	421.69
433.622	404.69
433.844	392.69
434.066	381.69
434.287	396.69
434.509	385.69
434.731	404.69
434.953	412.69
435.175	438.69
435.397	436.69
435.618	436.69
435.84	499.69
436.062	564.69
436.284	638.69
436.505	515.69
436.727	485.69
436.949	443.69
437.17	448.69
437.392	419.69
437.614	421.69
437.835	489.69
438.057	528.69
438.278	613.69
438.5	607.69
438.721	673.69
438.943	635.69
439.165	539.69
439.386	479.69
439.608	455.69
439.829	458.69
440.05	475.69
440.272	499.69
440.493	496.69
440.715	452.69
440.936	426.69
441.158	436.69
441.379	415.69
441.6	431.69
441.822	417.69
442.043	459.69
442.264	534.69
442.486	603.69
442.707	501.69
442.928	456.69
443.149	453.69
443.371	491.69
443.592	520.69
443.813	612.69
444.034	647.69
444.255	547.69
444.476	465.69
444.698	461.69
444.919	454.69
445.14	532.69
445.361	511.69
445.582	480.69
445.803	540.69
446.024	655.69
446.245	632.69
446.466	571.69
446.687	475.69
446.908	452.69
447.129	425.69
447.35	421.69
447.571	419.69
447.792	410.69
448.013	450.69
448.234	427.69
448.455	495.69
448.675	581.69
448.896	652.69
449.117	576.69
449.338	519.69
449.559	620.69
449.779	731.69
450	556.69
450.221	489.69
450.442	444.69
450.662	407.69
450.883	415.69
451.104	413.69
451.324	400.69
451.545	386.69
451.766	405.69
451.986	379.69
452.207	375.69
452.428	384.69
452.648	379.69
452.869	373.69
453.089	390.69
453.31	373.69
453.53	395.69
453.751	348.69
453.971	372.69
454.192	361.69
454.412	362.69
454.633	362.69
454.853	362.69
455.073	389.69
455.294	387.69
455.514	441.69
455.734	422.69
455.955	385.69
456.175	362.69
456.395	364.69
456.616	356.69
456.836	370.69
457.056	369.69
457.276	353.69
457.497	339.69
457.717	368.69
457.937	362.69
458.157	359.69
458.377	354.69
458.598	381.69
458.818	427.69
459.038	463.69
459.258	496.69
459.478	441.69
459.698	389.69
459.918	375.69
460.138	379.69
460.358	373.69
460.578	395.69
460.798	400.69
461.018	412.69
461.238	406.69
461.458	412.69
461.678	404.69
461.898	409.69
462.118	385.69
462.338	412.69
462.558	405.69
462.777	389.69
462.997	422.69
463.217	433.69
463.437	420.69
463.657	420.69
463.876	423.69
464.096	434.69
464.316	441.69
464.536	425.69
464.755	418.69
464.975	418.69
465.195	443.69
465.414	487.69
465.634	427.69
465.854	401.69
466.073	414.69
466.293	397.69
466.512	380.69
466.732	362.69
466.951	375.69
467.171	362.69
467.391	382.69
467.61	379.69
467.829	380.69
468.049	386.69
468.268	378.69
468.488	362.69
468.707	353.69
468.927	378.69
469.146	381.69
469.365	369.69
469.585	375.69
469.804	362.69
470.023	383.69
470.243	385.69
470.462	388.69
470.681	397.69
470.901	369.69
471.12	396.69
471.339	375.69
471.558	368.69
471.777	403.69
471.997	392.69
472.216	383.69
472.435	380.69
472.654	380.69
472.873	383.69
473.092	382.69
473.311	404.69
473.53	388.69
473.749	379.69
473.968	413.69
474.187	496.69
474.406	537.69
474.625	439.69
474.844	395.69
475.063	415.69
475.282	392.69
475.501	403.69
475.72	411.69
475.939	407.69
476.158	384.69
476.377	406.69
476.596	391.69
476.814	380.69
477.033	391.69
477.252	387.69
477.471	401.69
477.69	402.69
477.908	407.69
478.127	418.69
478.346	427.69
478.564	407.69
478.783	444.69
479.002	435.69
479.22	445.69
479.439	457.69
479.658	434.69
479.876	454.69
480.095	467.69
480.313	493.69
480.532	487.69
480.751	471.69
480.969	448.69
481.188	467.69
481.406	463.69
481.624	456.69
481.843	433.69
482.061	444.69
482.28	440.69
482.498	435.69
482.717	432.69
482.935	450.69
483.153	452.69
483.372	456.69
483.59	449.69
483.808	451.69
484.027	446.69
484.245	468.69
484.463	441.69
484.681	455.69
484.9	448.69
485.118	458.69
485.336	461.69
485.554	451.69
485.772	456.69
485.99	460.69
486.209	442.69
486.427	464.69
486.645	491.69
486.863	491.69
487.081	509.69
487.299	482.69
487.517	491.69
487.735	512.69
487.953	476.69
488.171	477.69
488.389	497.69
488.607	464.69
488.825	480.69
489.043	485.69
489.261	485.69
489.479	486.69
489.696	495.69
489.914	483.69
490.132	514.69
490.35	496.69
490.568	498.69
490.786	514.69
491.003	513.69
491.221	510.69
491.439	539.69
491.657	540.69
491.874	547.69
492.092	537.69
492.31	548.69
492.527	547.69
492.745	540.69
492.963	527.69
493.18	559.69
493.398	552.69
493.615	531.69
493.833	571.69
494.05	541.69
494.268	555.69
494.485	540.69
494.703	563.69
494.92	569.69
495.138	565.69
495.355	569.69
495.573	573.69
495.79	590.69
496.008	563.69
496.225	554.69
496.442	562.69
496.66	559.69
496.877	555.69
497.094	580.69
497.312	591.69
497.529	591.69
497.746	592.69
497.963	587.69
498.181	616.69
498.398	620.69
498.615	635.69
498.832	633.69
499.049	630.69
499.267	628.69
499.484	669.69
499.701	675.69
499.918	706.69
500.135	718.69
500.352	743.69
500.569	775.69
500.786	795.69
501.003	759.69
501.22	752.69
501.437	701.69
501.654	711.69
501.871	709.69
502.088	699.69
