Data from 1989.PennyLincolnUp.Lamp.En5.5.200Scan.071819.P2_HRD10591_17-26-05-974.txt Node
Date: Thu Jul 18 17:26:05 EDT 2019
User: cochatt
Spectrometer: HR+D1059
Trigger mode: 1
Integration Time (sec): 1.000000E-1
Scans to average: 1
Electric dark correction enabled: true
Nonlinearity correction enabled: false
Boxcar width: 0
XAxis mode: Wavelengths
Number of Pixels in Spectrum: 2048
>>>>>Begin Spectral Data<<<<<
223.165	-9.5
223.4	-9.5
223.635	-9.5
223.869	-15.5
224.104	-21.5
224.338	-31.5
224.573	-12.5
224.808	-6.5
225.042	4.5
225.277	-6.5
225.511	-7.5
225.746	13.5
225.98	6.5
226.215	1.5
226.449	6.5
226.683	22.5
226.918	27.5
227.152	28.5
227.387	26.5
227.621	42.5
227.856	43.5
228.09	32.5
228.324	55.5
228.559	61.5
228.793	86.5
229.027	94.5
229.262	106.5
229.496	132.5
229.73	147.5
229.964	177.5
230.199	143.5
230.433	106.5
230.667	119.5
230.901	115.5
231.136	116.5
231.37	116.5
231.604	126.5
231.838	128.5
232.072	105.5
232.306	131.5
232.541	119.5
232.775	120.5
233.009	111.5
233.243	117.5
233.477	115.5
233.711	136.5
233.945	130.5
234.179	133.5
234.413	110.5
234.647	118.5
234.881	119.5
235.115	123.5
235.349	132.5
235.583	121.5
235.817	151.5
236.051	136.5
236.285	149.5
236.519	131.5
236.753	151.5
236.987	172.5
237.221	179.5
237.455	264.5
237.689	207.5
237.922	139.5
238.156	141.5
238.39	134.5
238.624	144.5
238.858	126.5
239.091	137.5
239.325	143.5
239.559	133.5
239.793	137.5
240.027	152.5
240.26	137.5
240.494	172.5
240.728	159.5
240.961	177.5
241.195	151.5
241.429	151.5
241.662	159.5
241.896	140.5
242.13	149.5
242.363	135.5
242.597	139.5
242.83	155.5
243.064	147.5
243.298	169.5
243.531	164.5
243.765	149.5
243.998	154.5
244.232	159.5
244.465	167.5
244.699	162.5
244.932	157.5
245.166	160.5
245.399	151.5
245.633	178.5
245.866	158.5
246.099	155.5
246.333	175.5
246.566	165.5
246.8	169.5
247.033	163.5
247.266	164.5
247.5	184.5
247.733	193.5
247.966	200.5
248.2	181.5
248.433	200.5
248.666	217.5
248.899	197.5
249.133	226.5
249.366	243.5
249.599	231.5
249.832	193.5
250.066	204.5
250.299	220.5
250.532	221.5
250.765	255.5
250.998	265.5
251.231	268.5
251.465	251.5
251.698	231.5
251.931	233.5
252.164	227.5
252.397	224.5
252.63	243.5
252.863	243.5
253.096	259.5
253.329	258.5
253.562	262.5
253.795	266.5
254.028	245.5
254.261	258.5
254.494	275.5
254.727	291.5
254.96	323.5
255.193	311.5
255.426	287.5
255.659	271.5
255.892	287.5
256.124	302.5
256.357	302.5
256.59	268.5
256.823	273.5
257.056	248.5
257.289	242.5
257.521	245.5
257.754	231.5
257.987	247.5
258.22	244.5
258.452	253.5
258.685	240.5
258.918	246.5
259.151	240.5
259.383	247.5
259.616	254.5
259.849	273.5
260.081	280.5
260.314	288.5
260.547	304.5
260.779	284.5
261.012	265.5
261.244	273.5
261.477	270.5
261.71	260.5
261.942	266.5
262.175	260.5
262.407	260.5
262.64	255.5
262.872	245.5
263.105	245.5
263.337	245.5
263.57	243.5
263.802	234.5
264.035	245.5
264.267	248.5
264.499	223.5
264.732	223.5
264.964	249.5
265.197	236.5
265.429	235.5
265.661	233.5
265.894	233.5
266.126	251.5
266.358	247.5
266.591	252.5
266.823	263.5
267.055	263.5
267.287	287.5
267.52	261.5
267.752	259.5
267.984	280.5
268.216	267.5
268.448	263.5
268.681	267.5
268.913	285.5
269.145	296.5
269.377	310.5
269.609	311.5
269.841	312.5
270.073	320.5
270.306	330.5
270.538	369.5
270.77	372.5
271.002	343.5
271.234	323.5
271.466	337.5
271.698	367.5
271.93	369.5
272.162	366.5
272.394	362.5
272.626	352.5
272.858	334.5
273.09	325.5
273.322	332.5
273.553	327.5
273.785	296.5
274.017	319.5
274.249	307.5
274.481	305.5
274.713	293.5
274.945	297.5
275.176	292.5
275.408	310.5
275.64	301.5
275.872	295.5
276.104	301.5
276.335	304.5
276.567	321.5
276.799	342.5
277.031	344.5
277.262	381.5
277.494	377.5
277.726	346.5
277.957	347.5
278.189	310.5
278.421	304.5
278.652	327.5
278.884	308.5
279.115	296.5
279.347	309.5
279.579	297.5
279.81	309.5
280.042	303.5
280.273	300.5
280.505	321.5
280.736	304.5
280.968	277.5
281.199	301.5
281.431	316.5
281.662	295.5
281.894	323.5
282.125	327.5
282.356	337.5
282.588	352.5
282.819	359.5
283.051	316.5
283.282	304.5
283.513	312.5
283.745	324.5
283.976	325.5
284.207	314.5
284.439	326.5
284.67	326.5
284.901	310.5
285.132	309.5
285.364	309.5
285.595	312.5
285.826	308.5
286.057	325.5
286.288	305.5
286.52	324.5
286.751	319.5
286.982	323.5
287.213	299.5
287.444	316.5
287.675	342.5
287.906	333.5
288.138	340.5
288.369	350.5
288.6	323.5
288.831	332.5
289.062	340.5
289.293	343.5
289.524	334.5
289.755	332.5
289.986	339.5
290.217	304.5
290.448	333.5
290.679	332.5
290.91	327.5
291.141	307.5
291.371	316.5
291.602	336.5
291.833	317.5
292.064	340.5
292.295	324.5
292.526	327.5
292.757	335.5
292.987	336.5
293.218	307.5
293.449	334.5
293.68	316.5
293.91	324.5
294.141	332.5
294.372	316.5
294.603	311.5
294.833	326.5
295.064	305.5
295.295	334.5
295.525	330.5
295.756	346.5
295.987	342.5
296.217	348.5
296.448	370.5
296.679	348.5
296.909	335.5
297.14	343.5
297.37	328.5
297.601	328.5
297.831	344.5
298.062	335.5
298.292	333.5
298.523	341.5
298.753	358.5
298.984	315.5
299.214	337.5
299.445	357.5
299.675	335.5
299.905	348.5
300.136	337.5
300.366	325.5
300.597	346.5
300.827	364.5
301.057	351.5
301.288	361.5
301.518	351.5
301.748	356.5
301.979	353.5
302.209	373.5
302.439	352.5
302.669	333.5
302.9	364.5
303.13	350.5
303.36	355.5
303.59	371.5
303.82	375.5
304.051	371.5
304.281	369.5
304.511	380.5
304.741	352.5
304.971	357.5
305.201	352.5
305.431	356.5
305.661	360.5
305.891	372.5
306.121	367.5
306.352	381.5
306.582	378.5
306.812	367.5
307.042	365.5
307.272	363.5
307.502	368.5
307.731	373.5
307.961	373.5
308.191	365.5
308.421	395.5
308.651	387.5
308.881	379.5
309.111	358.5
309.341	385.5
309.571	393.5
309.8	394.5
310.03	409.5
310.26	411.5
310.49	398.5
310.72	431.5
310.949	453.5
311.179	455.5
311.409	429.5
311.639	427.5
311.868	437.5
312.098	431.5
312.328	445.5
312.557	445.5
312.787	479.5
313.017	453.5
313.246	442.5
313.476	437.5
313.706	407.5
313.935	443.5
314.165	439.5
314.394	445.5
314.624	463.5
314.853	443.5
315.083	435.5
315.312	415.5
315.542	423.5
315.771	387.5
316.001	407.5
316.23	428.5
316.46	419.5
316.689	416.5
316.919	429.5
317.148	426.5
317.377	447.5
317.607	421.5
317.836	417.5
318.065	416.5
318.295	429.5
318.524	428.5
318.753	399.5
318.983	432.5
319.212	412.5
319.441	427.5
319.67	418.5
319.9	429.5
320.129	438.5
320.358	445.5
320.587	426.5
320.816	447.5
321.046	433.5
321.275	438.5
321.504	459.5
321.733	436.5
321.962	449.5
322.191	482.5
322.42	508.5
322.649	495.5
322.878	535.5
323.108	527.5
323.337	558.5
323.566	605.5
323.795	613.5
324.024	682.5
324.253	806.5
324.482	1173.5
324.71	1810.5
324.939	2587.5
325.168	2289.5
325.397	1165.5
325.626	789.5
325.855	668.5
326.084	621.5
326.313	605.5
326.542	581.5
326.77	641.5
326.999	764.5
327.228	1056.5
327.457	1598.5
327.686	1949.5
327.914	1317.5
328.143	867.5
328.372	779.5
328.6	720.5
328.829	646.5
329.058	677.5
329.287	699.5
329.515	647.5
329.744	616.5
329.972	625.5
330.201	657.5
330.43	710.5
330.658	751.5
330.887	708.5
331.115	680.5
331.344	633.5
331.572	563.5
331.801	569.5
332.03	576.5
332.258	538.5
332.486	517.5
332.715	505.5
332.943	524.5
333.172	516.5
333.4	530.5
333.629	538.5
333.857	550.5
334.085	564.5
334.314	617.5
334.542	688.5
334.771	708.5
334.999	608.5
335.227	543.5
335.455	500.5
335.684	521.5
335.912	509.5
336.14	487.5
336.369	488.5
336.597	505.5
336.825	487.5
337.053	485.5
337.281	478.5
337.51	492.5
337.738	478.5
337.966	487.5
338.194	481.5
338.422	480.5
338.65	474.5
338.878	473.5
339.106	465.5
339.334	477.5
339.562	464.5
339.79	449.5
340.018	473.5
340.246	466.5
340.474	478.5
340.702	465.5
340.93	459.5
341.158	468.5
341.386	474.5
341.614	472.5
341.842	456.5
342.07	459.5
342.298	456.5
342.526	450.5
342.754	435.5
342.981	453.5
343.209	461.5
343.437	459.5
343.665	451.5
343.893	462.5
344.12	467.5
344.348	463.5
344.576	486.5
344.804	475.5
345.031	483.5
345.259	515.5
345.487	473.5
345.714	487.5
345.942	479.5
346.17	448.5
346.397	475.5
346.625	469.5
346.853	448.5
347.08	449.5
347.308	448.5
347.535	449.5
347.763	457.5
347.99	463.5
348.218	478.5
348.445	455.5
348.673	471.5
348.9	447.5
349.128	454.5
349.355	432.5
349.583	441.5
349.81	415.5
350.037	439.5
350.265	443.5
350.492	427.5
350.72	433.5
350.947	453.5
351.174	445.5
351.402	468.5
351.629	449.5
351.856	476.5
352.083	480.5
352.311	486.5
352.538	457.5
352.765	451.5
352.992	466.5
353.22	461.5
353.447	434.5
353.674	425.5
353.901	437.5
354.128	431.5
354.355	404.5
354.583	413.5
354.81	416.5
355.037	425.5
355.264	405.5
355.491	404.5
355.718	401.5
355.945	399.5
356.172	417.5
356.399	410.5
356.626	419.5
356.853	402.5
357.08	389.5
357.307	433.5
357.534	413.5
357.761	393.5
357.988	391.5
358.215	411.5
358.441	429.5
358.668	416.5
358.895	421.5
359.122	415.5
359.349	443.5
359.576	449.5
359.802	474.5
360.029	494.5
360.256	528.5
360.483	495.5
360.709	448.5
360.936	455.5
361.163	433.5
361.39	461.5
361.616	444.5
361.843	433.5
362.07	426.5
362.296	440.5
362.523	463.5
362.749	441.5
362.976	435.5
363.203	431.5
363.429	416.5
363.656	421.5
363.882	420.5
364.109	409.5
364.335	433.5
364.562	417.5
364.788	423.5
365.015	419.5
365.241	419.5
365.468	414.5
365.694	419.5
365.92	429.5
366.147	438.5
366.373	426.5
366.599	431.5
366.826	401.5
367.052	419.5
367.278	420.5
367.505	412.5
367.731	417.5
367.957	397.5
368.184	412.5
368.41	419.5
368.636	421.5
368.862	436.5
369.089	429.5
369.315	419.5
369.541	431.5
369.767	411.5
369.993	415.5
370.219	395.5
370.445	430.5
370.672	402.5
370.898	385.5
371.124	416.5
371.35	395.5
371.576	403.5
371.802	405.5
372.028	411.5
372.254	415.5
372.48	418.5
372.706	405.5
372.932	415.5
373.158	412.5
373.384	401.5
373.61	399.5
373.835	406.5
374.061	401.5
374.287	431.5
374.513	425.5
374.739	416.5
374.965	417.5
375.191	416.5
375.416	422.5
375.642	425.5
375.868	410.5
376.094	428.5
376.319	389.5
376.545	413.5
376.771	406.5
376.997	397.5
377.222	383.5
377.448	409.5
377.674	420.5
377.899	401.5
378.125	389.5
378.35	399.5
378.576	398.5
378.802	397.5
379.027	376.5
379.253	409.5
379.478	400.5
379.704	392.5
379.929	423.5
380.155	396.5
380.38	407.5
380.606	409.5
380.831	410.5
381.057	394.5
381.282	385.5
381.507	385.5
381.733	405.5
381.958	412.5
382.184	409.5
382.409	420.5
382.634	409.5
382.86	404.5
383.085	404.5
383.31	412.5
383.535	401.5
383.761	415.5
383.986	420.5
384.211	419.5
384.436	412.5
384.662	429.5
384.887	427.5
385.112	428.5
385.337	407.5
385.562	423.5
385.787	440.5
386.013	434.5
386.238	446.5
386.463	435.5
386.688	435.5
386.913	432.5
387.138	423.5
387.363	429.5
387.588	423.5
387.813	417.5
388.038	424.5
388.263	428.5
388.488	438.5
388.713	421.5
388.938	417.5
389.163	448.5
389.387	430.5
389.612	430.5
389.837	404.5
390.062	419.5
390.287	430.5
390.512	420.5
390.736	423.5
390.961	420.5
391.186	426.5
391.411	447.5
391.636	421.5
391.86	434.5
392.085	429.5
392.31	425.5
392.534	423.5
392.759	437.5
392.984	420.5
393.208	430.5
393.433	428.5
393.658	417.5
393.882	433.5
394.107	414.5
394.331	436.5
394.556	409.5
394.78	412.5
395.005	438.5
395.229	432.5
395.454	417.5
395.678	441.5
395.903	453.5
396.127	477.5
396.352	465.5
396.576	437.5
396.801	439.5
397.025	430.5
397.249	428.5
397.474	451.5
397.698	447.5
397.922	460.5
398.147	481.5
398.371	489.5
398.595	479.5
398.82	461.5
399.044	470.5
399.268	480.5
399.492	505.5
399.717	507.5
399.941	551.5
400.165	583.5
400.389	605.5
400.613	542.5
400.837	493.5
401.062	499.5
401.286	484.5
401.51	490.5
401.734	474.5
401.958	493.5
402.182	501.5
402.406	494.5
402.63	491.5
402.854	494.5
403.078	484.5
403.302	506.5
403.526	503.5
403.75	489.5
403.974	494.5
404.198	503.5
404.422	507.5
404.645	503.5
404.869	532.5
405.093	546.5
405.317	603.5
405.541	637.5
405.765	577.5
405.988	554.5
406.212	518.5
406.436	549.5
406.66	570.5
406.883	528.5
407.107	557.5
407.331	587.5
407.555	671.5
407.778	647.5
408.002	612.5
408.226	559.5
408.449	556.5
408.673	542.5
408.896	570.5
409.12	649.5
409.344	567.5
409.567	523.5
409.791	525.5
410.014	509.5
410.238	485.5
410.461	488.5
410.685	529.5
410.908	496.5
411.132	548.5
411.355	591.5
411.578	564.5
411.802	530.5
412.025	482.5
412.249	519.5
412.472	564.5
412.695	585.5
412.919	583.5
413.142	528.5
413.365	507.5
413.589	525.5
413.812	496.5
414.035	478.5
414.258	501.5
414.482	473.5
414.705	468.5
414.928	479.5
415.151	478.5
415.374	471.5
415.597	479.5
415.821	463.5
416.044	479.5
416.267	469.5
416.49	474.5
416.713	449.5
416.936	474.5
417.159	454.5
417.382	477.5
417.605	465.5
417.828	490.5
418.051	495.5
418.274	468.5
418.497	458.5
418.72	475.5
418.943	449.5
419.166	504.5
419.389	499.5
419.611	485.5
419.834	516.5
420.057	514.5
420.28	535.5
420.503	517.5
420.726	520.5
420.948	544.5
421.171	578.5
421.394	609.5
421.617	542.5
421.839	515.5
422.062	504.5
422.285	511.5
422.507	572.5
422.73	638.5
422.953	608.5
423.175	559.5
423.398	547.5
423.621	522.5
423.843	552.5
424.066	543.5
424.288	533.5
424.511	544.5
424.733	629.5
424.956	701.5
425.178	662.5
425.401	681.5
425.623	693.5
425.846	582.5
426.068	530.5
426.291	543.5
426.513	544.5
426.735	560.5
426.958	604.5
427.18	693.5
427.402	813.5
427.625	885.5
427.847	807.5
428.069	724.5
428.292	616.5
428.514	558.5
428.736	532.5
428.958	511.5
429.181	494.5
429.403	499.5
429.625	517.5
429.847	535.5
430.069	629.5
430.292	618.5
430.514	549.5
430.736	522.5
430.958	484.5
431.18	478.5
431.402	473.5
431.624	442.5
431.846	449.5
432.068	471.5
432.29	470.5
432.512	488.5
432.734	489.5
432.956	494.5
433.178	474.5
433.4	508.5
433.622	500.5
433.844	469.5
434.066	460.5
434.287	453.5
434.509	465.5
434.731	464.5
434.953	480.5
435.175	481.5
435.397	523.5
435.618	525.5
435.84	585.5
436.062	682.5
436.284	736.5
436.505	622.5
436.727	563.5
436.949	540.5
437.17	495.5
437.392	513.5
437.614	535.5
437.835	550.5
438.057	656.5
438.278	747.5
438.5	755.5
438.721	821.5
438.943	791.5
439.165	634.5
439.386	570.5
439.608	578.5
439.829	579.5
440.05	587.5
440.272	644.5
440.493	594.5
440.715	545.5
440.936	516.5
441.158	525.5
441.379	512.5
441.6	511.5
441.822	547.5
442.043	569.5
442.264	658.5
442.486	727.5
442.707	598.5
442.928	543.5
443.149	556.5
443.371	583.5
443.592	630.5
443.813	713.5
444.034	783.5
444.255	641.5
444.476	574.5
444.698	521.5
444.919	542.5
445.14	656.5
445.361	598.5
445.582	592.5
445.803	637.5
446.024	743.5
446.245	781.5
446.466	702.5
446.687	599.5
446.908	542.5
447.129	521.5
447.35	493.5
447.571	519.5
447.792	488.5
448.013	491.5
448.234	531.5
448.455	561.5
448.675	713.5
448.896	796.5
449.117	679.5
449.338	640.5
449.559	738.5
449.779	857.5
450	698.5
450.221	581.5
450.442	518.5
450.662	488.5
450.883	510.5
451.104	519.5
451.324	506.5
451.545	463.5
451.766	465.5
451.986	469.5
452.207	448.5
452.428	461.5
452.648	455.5
452.869	467.5
453.089	483.5
453.31	480.5
453.53	473.5
453.751	451.5
453.971	438.5
454.192	457.5
454.412	454.5
454.633	453.5
454.853	438.5
455.073	437.5
455.294	486.5
455.514	549.5
455.734	541.5
455.955	448.5
456.175	443.5
456.395	440.5
456.616	419.5
456.836	419.5
457.056	414.5
457.276	393.5
457.497	409.5
457.717	404.5
457.937	424.5
458.157	438.5
458.377	413.5
458.598	476.5
458.818	527.5
459.038	617.5
459.258	603.5
459.478	532.5
459.698	465.5
459.918	447.5
460.138	448.5
460.358	456.5
460.578	468.5
460.798	453.5
461.018	480.5
461.238	455.5
461.458	440.5
461.678	448.5
461.898	463.5
462.118	445.5
462.338	464.5
462.558	457.5
462.777	482.5
462.997	500.5
463.217	492.5
463.437	486.5
463.657	486.5
463.876	487.5
464.096	480.5
464.316	491.5
464.536	491.5
464.755	479.5
464.975	478.5
465.195	529.5
465.414	633.5
465.634	555.5
465.854	504.5
466.073	484.5
466.293	462.5
466.512	465.5
466.732	445.5
466.951	447.5
467.171	456.5
467.391	444.5
467.61	477.5
467.829	475.5
468.049	462.5
468.268	465.5
468.488	455.5
468.707	453.5
468.927	431.5
469.146	464.5
469.365	431.5
469.585	431.5
469.804	438.5
470.023	488.5
470.243	472.5
470.462	462.5
470.681	491.5
470.901	456.5
471.12	469.5
471.339	465.5
471.558	474.5
471.777	448.5
471.997	468.5
472.216	483.5
472.435	558.5
472.654	523.5
472.873	476.5
473.092	438.5
473.311	474.5
473.53	458.5
473.749	477.5
473.968	527.5
474.187	649.5
474.406	666.5
474.625	545.5
474.844	487.5
475.063	471.5
475.282	472.5
475.501	464.5
475.72	471.5
475.939	480.5
476.158	477.5
476.377	483.5
476.596	481.5
476.814	471.5
477.033	496.5
477.252	477.5
477.471	504.5
477.69	494.5
477.908	486.5
478.127	490.5
478.346	504.5
478.564	497.5
478.783	504.5
479.002	529.5
479.22	519.5
479.439	539.5
479.658	523.5
479.876	543.5
480.095	565.5
480.313	602.5
480.532	571.5
480.751	565.5
480.969	592.5
481.188	719.5
481.406	789.5
481.624	657.5
481.843	589.5
482.061	571.5
482.28	552.5
482.498	542.5
482.717	563.5
482.935	556.5
483.153	545.5
483.372	557.5
483.59	538.5
483.808	544.5
484.027	553.5
484.245	525.5
484.463	527.5
484.681	555.5
484.9	561.5
485.118	550.5
485.336	557.5
485.554	537.5
485.772	546.5
485.99	577.5
486.209	559.5
486.427	563.5
486.645	585.5
486.863	571.5
487.081	586.5
487.299	590.5
487.517	586.5
487.735	576.5
487.953	582.5
488.171	588.5
488.389	591.5
488.607	588.5
488.825	583.5
489.043	592.5
489.261	614.5
489.479	594.5
489.696	578.5
489.914	590.5
490.132	591.5
490.35	594.5
490.568	608.5
490.786	635.5
491.003	643.5
491.221	662.5
491.439	641.5
491.657	650.5
491.874	656.5
492.092	682.5
492.31	699.5
492.527	703.5
492.745	694.5
492.963	710.5
493.18	707.5
493.398	715.5
493.615	706.5
493.833	701.5
494.05	697.5
494.268	719.5
494.485	681.5
494.703	705.5
494.92	705.5
495.138	705.5
495.355	697.5
495.573	690.5
495.79	702.5
496.008	704.5
496.225	693.5
496.442	691.5
496.66	684.5
496.877	700.5
497.094	688.5
497.312	662.5
497.529	725.5
497.746	726.5
497.963	730.5
498.181	737.5
498.398	756.5
498.615	736.5
498.832	759.5
499.049	747.5
499.267	771.5
499.484	767.5
499.701	794.5
499.918	806.5
500.135	862.5
500.352	874.5
500.569	871.5
500.786	872.5
501.003	888.5
501.22	886.5
501.437	847.5
501.654	867.5
501.871	828.5
502.088	844.5
502.305	806.5
502.522	742.5
502.739	733.5
502.956	722.5
503.172	716.5
503.389	709.5
503.606	715.5
503.823	716.5
504.04	700.5
504.256	710.5
504.473	693.5
504.69	675.5
504.907	693.5
505.123	676.5
505.34	649.5
505.557	650.5
505.773	641.5
505.99	650.5
506.207	680.5
506.423	679.5
506.64	660.5
506.856	651.5
507.073	657.5
507.289	652.5
507.506	636.5
507.722	636.5
507.939	664.5
508.155	663.5
508.372	662.5
508.588	635.5
508.805	627.5
509.021	635.5
509.238	654.5
509.454	645.5
509.67	654.5
509.887	641.5
510.103	636.5
510.319	654.5
510.536	775.5
510.752	1292.5
510.968	1052.5
511.184	667.5
511.401	631.5
511.617	634.5
511.833	617.5
512.049	608.5
512.265	599.5
512.481	604.5
512.698	614.5
512.914	601.5
513.13	581.5
513.346	619.5
513.562	590.5
513.778	625.5
513.994	603.5
514.21	619.5
514.426	660.5
514.642	711.5
514.858	729.5
515.074	772.5
515.29	937.5
515.506	1391.5
515.721	1141.5
515.937	743.5
516.153	681.5
516.369	669.5
516.585	617.5
516.801	632.5
517.016	625.5
517.232	602.5
517.448	622.5
517.664	609.5
517.879	611.5
518.095	589.5
518.311	602.5
518.527	579.5
518.742	587.5
518.958	607.5
519.173	595.5
519.389	587.5
519.605	595.5
519.82	615.5
