Data from 1989.PennyLincolnUp.Lamp.En5.5.200Scan.071819.P2_HRD10591_17-23-30-974.txt Node
Date: Thu Jul 18 17:23:30 EDT 2019
User: cochatt
Spectrometer: HR+D1059
Trigger mode: 1
Integration Time (sec): 1.000000E-1
Scans to average: 1
Electric dark correction enabled: true
Nonlinearity correction enabled: false
Boxcar width: 0
XAxis mode: Wavelengths
Number of Pixels in Spectrum: 2048
>>>>>Begin Spectral Data<<<<<
223.165	-5.06
223.4	-5.06
223.635	-5.06
223.869	-26.06
224.104	-21.06
224.338	-19.06
224.573	-11.06
224.808	-11.06
225.042	-16.06
225.277	-13.06
225.511	2.94
225.746	8.94
225.98	10.94
226.215	13.94
226.449	10.94
226.683	24.94
226.918	17.94
227.152	31.94
227.387	28.94
227.621	40.94
227.856	33.94
228.09	41.94
228.324	36.94
228.559	51.94
228.793	56.94
229.027	89.94
229.262	96.94
229.496	112.94
229.73	109.94
229.964	130.94
230.199	117.94
230.433	101.94
230.667	100.94
230.901	113.94
231.136	113.94
231.37	103.94
231.604	105.94
231.838	108.94
232.072	117.94
232.306	111.94
232.541	121.94
232.775	112.94
233.009	115.94
233.243	90.94
233.477	113.94
233.711	107.94
233.945	110.94
234.179	102.94
234.413	102.94
234.647	123.94
234.881	120.94
235.115	111.94
235.349	119.94
235.583	115.94
235.817	125.94
236.051	124.94
236.285	126.94
236.519	121.94
236.753	127.94
236.987	157.94
237.221	171.94
237.455	213.94
237.689	190.94
237.922	139.94
238.156	132.94
238.39	131.94
238.624	123.94
238.858	112.94
239.091	121.94
239.325	113.94
239.559	137.94
239.793	126.94
240.027	115.94
240.26	138.94
240.494	148.94
240.728	160.94
240.961	160.94
241.195	146.94
241.429	137.94
241.662	140.94
241.896	144.94
242.13	120.94
242.363	116.94
242.597	121.94
242.83	146.94
243.064	134.94
243.298	132.94
243.531	143.94
243.765	128.94
243.998	136.94
244.232	137.94
244.465	149.94
244.699	138.94
244.932	130.94
245.166	143.94
245.399	150.94
245.633	140.94
245.866	142.94
246.099	136.94
246.333	149.94
246.566	142.94
246.8	138.94
247.033	152.94
247.266	140.94
247.5	171.94
247.733	176.94
247.966	173.94
248.2	155.94
248.433	187.94
248.666	160.94
248.899	179.94
249.133	184.94
249.366	189.94
249.599	202.94
249.832	164.94
250.066	174.94
250.299	176.94
250.532	193.94
250.765	200.94
250.998	213.94
251.231	225.94
251.465	226.94
251.698	198.94
251.931	191.94
252.164	197.94
252.397	187.94
252.63	199.94
252.863	187.94
253.096	218.94
253.329	226.94
253.562	214.94
253.795	215.94
254.028	214.94
254.261	226.94
254.494	226.94
254.727	239.94
254.96	251.94
255.193	266.94
255.426	251.94
255.659	225.94
255.892	227.94
256.124	227.94
256.357	214.94
256.59	215.94
256.823	224.94
257.056	203.94
257.289	199.94
257.521	219.94
257.754	222.94
257.987	214.94
258.22	206.94
258.452	213.94
258.685	204.94
258.918	216.94
259.151	209.94
259.383	219.94
259.616	211.94
259.849	223.94
260.081	215.94
260.314	243.94
260.547	245.94
260.779	248.94
261.012	256.94
261.244	215.94
261.477	225.94
261.71	222.94
261.942	222.94
262.175	220.94
262.407	227.94
262.64	212.94
262.872	200.94
263.105	207.94
263.337	212.94
263.57	205.94
263.802	205.94
264.035	224.94
264.267	222.94
264.499	216.94
264.732	201.94
264.964	206.94
265.197	202.94
265.429	211.94
265.661	202.94
265.894	213.94
266.126	210.94
266.358	227.94
266.591	217.94
266.823	240.94
267.055	214.94
267.287	218.94
267.52	207.94
267.752	228.94
267.984	217.94
268.216	222.94
268.448	217.94
268.681	227.94
268.913	245.94
269.145	242.94
269.377	288.94
269.609	277.94
269.841	258.94
270.073	271.94
270.306	274.94
270.538	330.94
270.77	310.94
271.002	316.94
271.234	284.94
271.466	304.94
271.698	289.94
271.93	310.94
272.162	313.94
272.394	320.94
272.626	310.94
272.858	274.94
273.09	286.94
273.322	265.94
273.553	264.94
273.785	270.94
274.017	267.94
274.249	274.94
274.481	268.94
274.713	280.94
274.945	273.94
275.176	257.94
275.408	258.94
275.64	267.94
275.872	262.94
276.104	254.94
276.335	247.94
276.567	261.94
276.799	264.94
277.031	305.94
277.262	309.94
277.494	316.94
277.726	321.94
277.957	274.94
278.189	287.94
278.421	282.94
278.652	276.94
278.884	272.94
279.115	268.94
279.347	274.94
279.579	267.94
279.81	256.94
280.042	255.94
280.273	265.94
280.505	272.94
280.736	264.94
280.968	266.94
281.199	259.94
281.431	264.94
281.662	258.94
281.894	266.94
282.125	264.94
282.356	287.94
282.588	302.94
282.819	303.94
283.051	262.94
283.282	249.94
283.513	287.94
283.745	283.94
283.976	264.94
284.207	274.94
284.439	275.94
284.67	288.94
284.901	264.94
285.132	268.94
285.364	286.94
285.595	272.94
285.826	275.94
286.057	262.94
286.288	274.94
286.52	261.94
286.751	270.94
286.982	275.94
287.213	282.94
287.444	262.94
287.675	294.94
287.906	293.94
288.138	296.94
288.369	305.94
288.6	288.94
288.831	281.94
289.062	267.94
289.293	286.94
289.524	289.94
289.755	278.94
289.986	289.94
290.217	275.94
290.448	279.94
290.679	287.94
290.91	275.94
291.141	290.94
291.371	282.94
291.602	283.94
291.833	289.94
292.064	279.94
292.295	275.94
292.526	282.94
292.757	271.94
292.987	278.94
293.218	268.94
293.449	281.94
293.68	272.94
293.91	297.94
294.141	274.94
294.372	285.94
294.603	289.94
294.833	287.94
295.064	285.94
295.295	295.94
295.525	265.94
295.756	285.94
295.987	304.94
296.217	326.94
296.448	314.94
296.679	307.94
296.909	287.94
297.14	282.94
297.37	299.94
297.601	288.94
297.831	299.94
298.062	268.94
298.292	274.94
298.523	293.94
298.753	304.94
298.984	296.94
299.214	288.94
299.445	307.94
299.675	296.94
299.905	295.94
300.136	302.94
300.366	302.94
300.597	271.94
300.827	291.94
301.057	323.94
301.288	314.94
301.518	315.94
301.748	319.94
301.979	292.94
302.209	304.94
302.439	318.94
302.669	323.94
302.9	302.94
303.13	313.94
303.36	323.94
303.59	326.94
303.82	317.94
304.051	315.94
304.281	319.94
304.511	326.94
304.741	322.94
304.971	313.94
305.201	306.94
305.431	307.94
305.661	313.94
305.891	326.94
306.121	308.94
306.352	320.94
306.582	326.94
306.812	317.94
307.042	328.94
307.272	311.94
307.502	325.94
307.731	309.94
307.961	319.94
308.191	336.94
308.421	306.94
308.651	323.94
308.881	338.94
309.111	324.94
309.341	322.94
309.571	329.94
309.8	350.94
310.03	347.94
310.26	346.94
310.49	360.94
310.72	373.94
310.949	380.94
311.179	386.94
311.409	375.94
311.639	360.94
311.868	358.94
312.098	363.94
312.328	384.94
312.557	371.94
312.787	378.94
313.017	376.94
313.246	362.94
313.476	360.94
313.706	355.94
313.935	357.94
314.165	390.94
314.394	377.94
314.624	375.94
314.853	375.94
315.083	358.94
315.312	391.94
315.542	358.94
315.771	340.94
316.001	362.94
316.23	360.94
316.46	347.94
316.689	356.94
316.919	372.94
317.148	372.94
317.377	383.94
317.607	372.94
317.836	373.94
318.065	361.94
318.295	373.94
318.524	360.94
318.753	361.94
318.983	344.94
319.212	371.94
319.441	370.94
319.67	366.94
319.9	374.94
320.129	369.94
320.358	352.94
320.587	368.94
320.816	352.94
321.046	361.94
321.275	379.94
321.504	367.94
321.733	386.94
321.962	378.94
322.191	376.94
322.42	400.94
322.649	420.94
322.878	423.94
323.108	433.94
323.337	478.94
323.566	483.94
323.795	499.94
324.024	540.94
324.253	648.94
324.482	934.94
324.71	1393.94
324.939	1991.94
325.168	1760.94
325.397	908.94
325.626	614.94
325.855	500.94
326.084	483.94
326.313	475.94
326.542	488.94
326.77	517.94
326.999	597.94
327.228	834.94
327.457	1264.94
327.686	1536.94
327.914	1028.94
328.143	677.94
328.372	578.94
328.6	512.94
328.829	513.94
329.058	544.94
329.287	553.94
329.515	518.94
329.744	471.94
329.972	457.94
330.201	460.94
330.43	495.94
330.658	487.94
330.887	535.94
331.115	539.94
331.344	464.94
331.572	440.94
331.801	455.94
332.03	452.94
332.258	441.94
332.486	432.94
332.715	417.94
332.943	421.94
333.172	444.94
333.4	415.94
333.629	418.94
333.857	423.94
334.085	424.94
334.314	431.94
334.542	423.94
334.771	440.94
334.999	402.94
335.227	426.94
335.455	418.94
335.684	431.94
335.912	429.94
336.14	405.94
336.369	417.94
336.597	429.94
336.825	428.94
337.053	426.94
337.281	403.94
337.51	400.94
337.738	402.94
337.966	396.94
338.194	414.94
338.422	408.94
338.65	408.94
338.878	420.94
339.106	391.94
339.334	416.94
339.562	389.94
339.79	404.94
340.018	410.94
340.246	392.94
340.474	417.94
340.702	403.94
340.93	403.94
341.158	412.94
341.386	403.94
341.614	407.94
341.842	415.94
342.07	408.94
342.298	403.94
342.526	395.94
342.754	397.94
342.981	383.94
343.209	385.94
343.437	409.94
343.665	397.94
343.893	423.94
344.12	412.94
344.348	425.94
344.576	410.94
344.804	384.94
345.031	427.94
345.259	426.94
345.487	426.94
345.714	396.94
345.942	394.94
346.17	405.94
346.397	411.94
346.625	391.94
346.853	380.94
347.08	368.94
347.308	399.94
347.535	388.94
347.763	404.94
347.99	409.94
348.218	400.94
348.445	405.94
348.673	389.94
348.9	401.94
349.128	378.94
349.355	378.94
349.583	367.94
349.81	369.94
350.037	381.94
350.265	351.94
350.492	365.94
350.72	379.94
350.947	384.94
351.174	379.94
351.402	370.94
351.629	382.94
351.856	362.94
352.083	390.94
352.311	401.94
352.538	404.94
352.765	395.94
352.992	397.94
353.22	406.94
353.447	378.94
353.674	378.94
353.901	359.94
354.128	382.94
354.355	364.94
354.583	375.94
354.81	350.94
355.037	374.94
355.264	363.94
355.491	362.94
355.718	340.94
355.945	366.94
356.172	364.94
356.399	356.94
356.626	375.94
356.853	366.94
357.08	360.94
357.307	358.94
357.534	353.94
357.761	354.94
357.988	351.94
358.215	363.94
358.441	352.94
358.668	357.94
358.895	357.94
359.122	373.94
359.349	371.94
359.576	359.94
359.802	390.94
360.029	418.94
360.256	443.94
360.483	430.94
360.709	390.94
360.936	384.94
361.163	371.94
361.39	374.94
361.616	382.94
361.843	362.94
362.07	388.94
362.296	384.94
362.523	374.94
362.749	357.94
362.976	353.94
363.203	361.94
363.429	361.94
363.656	369.94
363.882	342.94
364.109	366.94
364.335	365.94
364.562	376.94
364.788	383.94
365.015	375.94
365.241	351.94
365.468	367.94
365.694	375.94
365.92	390.94
366.147	352.94
366.373	370.94
366.599	380.94
366.826	352.94
367.052	352.94
367.278	363.94
367.505	352.94
367.731	353.94
367.957	359.94
368.184	383.94
368.41	374.94
368.636	374.94
368.862	387.94
369.089	387.94
369.315	369.94
369.541	356.94
369.767	353.94
369.993	368.94
370.219	362.94
370.445	357.94
370.672	365.94
370.898	354.94
371.124	368.94
371.35	358.94
371.576	370.94
371.802	361.94
372.028	363.94
372.254	372.94
372.48	361.94
372.706	352.94
372.932	378.94
373.158	370.94
373.384	386.94
373.61	375.94
373.835	368.94
374.061	342.94
374.287	363.94
374.513	379.94
374.739	361.94
374.965	352.94
375.191	366.94
375.416	348.94
375.642	352.94
375.868	378.94
376.094	362.94
376.319	355.94
376.545	334.94
376.771	330.94
376.997	353.94
377.222	363.94
377.448	365.94
377.674	352.94
377.899	360.94
378.125	355.94
378.35	327.94
378.576	333.94
378.802	362.94
379.027	346.94
379.253	366.94
379.478	354.94
379.704	354.94
379.929	361.94
380.155	340.94
380.38	363.94
380.606	370.94
380.831	358.94
381.057	364.94
381.282	368.94
381.507	356.94
381.733	361.94
381.958	366.94
382.184	366.94
382.409	384.94
382.634	357.94
382.86	324.94
383.085	384.94
383.31	355.94
383.535	363.94
383.761	367.94
383.986	370.94
384.211	374.94
384.436	374.94
384.662	374.94
384.887	387.94
385.112	372.94
385.337	391.94
385.562	376.94
385.787	371.94
386.013	388.94
386.238	403.94
386.463	408.94
386.688	387.94
386.913	390.94
387.138	377.94
387.363	390.94
387.588	388.94
387.813	379.94
388.038	370.94
388.263	378.94
388.488	381.94
388.713	378.94
388.938	378.94
389.163	378.94
389.387	386.94
389.612	377.94
389.837	385.94
390.062	376.94
390.287	390.94
390.512	342.94
390.736	356.94
390.961	396.94
391.186	399.94
391.411	389.94
391.636	375.94
391.86	371.94
392.085	378.94
392.31	394.94
392.534	385.94
392.759	388.94
392.984	384.94
393.208	397.94
393.433	364.94
393.658	379.94
393.882	368.94
394.107	390.94
394.331	386.94
394.556	384.94
394.78	371.94
395.005	381.94
395.229	392.94
395.454	382.94
395.678	403.94
395.903	406.94
396.127	418.94
396.352	417.94
396.576	381.94
396.801	399.94
397.025	396.94
397.249	387.94
397.474	382.94
397.698	395.94
397.922	408.94
398.147	436.94
398.371	431.94
398.595	439.94
398.82	414.94
399.044	419.94
399.268	435.94
399.492	470.94
399.717	474.94
399.941	476.94
400.165	514.94
400.389	525.94
400.613	467.94
400.837	454.94
401.062	422.94
401.286	441.94
401.51	426.94
401.734	430.94
401.958	418.94
402.182	439.94
402.406	445.94
402.63	419.94
402.854	427.94
403.078	429.94
403.302	421.94
403.526	444.94
403.75	435.94
403.974	437.94
404.198	442.94
404.422	446.94
404.645	447.94
404.869	438.94
405.093	458.94
405.317	489.94
405.541	485.94
405.765	471.94
405.988	451.94
406.212	483.94
406.436	486.94
406.66	482.94
406.883	463.94
407.107	458.94
407.331	557.94
407.555	575.94
407.778	576.94
408.002	524.94
408.226	482.94
408.449	491.94
408.673	473.94
408.896	520.94
409.12	558.94
409.344	521.94
409.567	474.94
409.791	450.94
410.014	428.94
410.238	441.94
410.461	452.94
410.685	440.94
410.908	466.94
411.132	472.94
411.355	519.94
411.578	498.94
411.802	450.94
412.025	440.94
412.249	437.94
412.472	446.94
412.695	463.94
412.919	431.94
413.142	435.94
413.365	432.94
413.589	412.94
413.812	402.94
414.035	407.94
414.258	378.94
414.482	401.94
414.705	406.94
414.928	412.94
415.151	416.94
415.374	427.94
415.597	409.94
415.821	408.94
416.044	419.94
416.267	409.94
416.49	409.94
416.713	408.94
416.936	407.94
417.159	425.94
417.382	410.94
417.605	409.94
417.828	422.94
418.051	420.94
418.274	440.94
418.497	410.94
418.72	415.94
418.943	410.94
419.166	424.94
419.389	461.94
419.611	441.94
419.834	439.94
420.057	430.94
420.28	421.94
420.503	411.94
420.726	427.94
420.948	435.94
421.171	478.94
421.394	504.94
421.617	469.94
421.839	435.94
422.062	425.94
422.285	428.94
422.507	508.94
422.73	584.94
422.953	549.94
423.175	471.94
423.398	446.94
423.621	457.94
423.843	475.94
424.066	462.94
424.288	468.94
424.511	525.94
424.733	549.94
424.956	616.94
425.178	579.94
425.401	558.94
425.623	594.94
425.846	521.94
426.068	463.94
426.291	494.94
426.513	454.94
426.735	472.94
426.958	521.94
427.18	594.94
427.402	704.94
427.625	781.94
427.847	646.94
428.069	560.94
428.292	486.94
428.514	471.94
428.736	475.94
428.958	452.94
429.181	459.94
429.403	450.94
429.625	446.94
429.847	452.94
430.069	542.94
430.292	532.94
430.514	468.94
430.736	454.94
430.958	436.94
431.18	403.94
431.402	416.94
431.624	417.94
431.846	391.94
432.068	402.94
432.29	420.94
432.512	419.94
432.734	419.94
432.956	402.94
433.178	420.94
433.4	432.94
433.622	408.94
433.844	430.94
434.066	418.94
434.287	422.94
434.509	422.94
434.731	426.94
434.953	434.94
435.175	460.94
435.397	473.94
435.618	480.94
435.84	508.94
436.062	610.94
436.284	681.94
436.505	568.94
436.727	512.94
436.949	465.94
437.17	446.94
437.392	431.94
437.614	467.94
437.835	517.94
438.057	576.94
438.278	664.94
438.5	658.94
438.721	724.94
438.943	704.94
439.165	551.94
439.386	499.94
439.608	483.94
439.829	508.94
440.05	500.94
440.272	549.94
440.493	518.94
440.715	469.94
440.936	451.94
441.158	427.94
441.379	442.94
441.6	459.94
441.822	483.94
442.043	511.94
442.264	567.94
442.486	611.94
442.707	523.94
442.928	477.94
443.149	473.94
443.371	518.94
443.592	536.94
443.813	629.94
444.034	693.94
444.255	579.94
444.476	484.94
444.698	481.94
444.919	467.94
445.14	538.94
445.361	529.94
445.582	502.94
445.803	558.94
446.024	662.94
446.245	694.94
446.466	638.94
446.687	545.94
446.908	476.94
447.129	444.94
447.35	438.94
447.571	425.94
447.792	439.94
448.013	460.94
448.234	474.94
448.455	489.94
448.675	615.94
448.896	707.94
449.117	595.94
449.338	560.94
449.559	682.94
449.779	730.94
450	603.94
450.221	518.94
450.442	479.94
450.662	428.94
450.883	446.94
451.104	443.94
451.324	419.94
451.545	415.94
451.766	415.94
451.986	386.94
452.207	377.94
452.428	377.94
452.648	378.94
452.869	403.94
453.089	392.94
453.31	404.94
453.53	385.94
453.751	386.94
453.971	376.94
454.192	410.94
454.412	403.94
454.633	397.94
454.853	392.94
455.073	385.94
455.294	412.94
455.514	475.94
455.734	476.94
455.955	414.94
456.175	373.94
456.395	376.94
456.616	361.94
456.836	393.94
457.056	361.94
457.276	366.94
457.497	379.94
457.717	372.94
457.937	369.94
458.157	388.94
458.377	382.94
458.598	402.94
458.818	430.94
459.038	512.94
459.258	534.94
459.478	467.94
459.698	424.94
459.918	404.94
460.138	414.94
460.358	409.94
460.578	405.94
460.798	413.94
461.018	405.94
461.238	419.94
461.458	404.94
461.678	413.94
461.898	435.94
462.118	399.94
462.338	418.94
462.558	414.94
462.777	400.94
462.997	433.94
463.217	436.94
463.437	439.94
463.657	424.94
463.876	430.94
464.096	435.94
464.316	418.94
464.536	438.94
464.755	421.94
464.975	427.94
465.195	470.94
465.414	526.94
465.634	490.94
465.854	454.94
466.073	419.94
466.293	401.94
466.512	395.94
466.732	376.94
466.951	400.94
467.171	402.94
467.391	402.94
467.61	400.94
467.829	410.94
468.049	399.94
468.268	396.94
468.488	375.94
468.707	406.94
468.927	386.94
469.146	372.94
469.365	385.94
469.585	387.94
469.804	402.94
470.023	410.94
470.243	400.94
470.462	395.94
470.681	412.94
470.901	415.94
471.12	418.94
471.339	405.94
471.558	413.94
471.777	402.94
471.997	384.94
472.216	402.94
472.435	380.94
472.654	386.94
472.873	392.94
473.092	391.94
473.311	406.94
473.53	393.94
473.749	408.94
473.968	440.94
474.187	536.94
474.406	560.94
474.625	472.94
474.844	416.94
475.063	402.94
475.282	405.94
475.501	409.94
475.72	419.94
475.939	397.94
476.158	417.94
476.377	425.94
476.596	389.94
476.814	426.94
477.033	400.94
477.252	410.94
477.471	416.94
477.69	403.94
477.908	434.94
478.127	454.94
478.346	434.94
478.564	459.94
478.783	458.94
479.002	451.94
479.22	456.94
479.439	456.94
479.658	479.94
479.876	470.94
480.095	481.94
480.313	516.94
480.532	500.94
480.751	508.94
480.969	498.94
481.188	492.94
481.406	488.94
481.624	481.94
481.843	466.94
482.061	473.94
482.28	457.94
482.498	439.94
482.717	458.94
482.935	481.94
483.153	475.94
483.372	474.94
483.59	464.94
483.808	462.94
484.027	469.94
484.245	458.94
484.463	483.94
484.681	475.94
484.9	476.94
485.118	494.94
485.336	484.94
485.554	499.94
485.772	504.94
485.99	474.94
486.209	465.94
486.427	495.94
486.645	502.94
486.863	528.94
487.081	486.94
487.299	520.94
487.517	479.94
487.735	521.94
487.953	486.94
488.171	499.94
488.389	497.94
488.607	483.94
488.825	479.94
489.043	506.94
489.261	524.94
489.479	518.94
489.696	525.94
489.914	506.94
490.132	538.94
490.35	524.94
490.568	542.94
490.786	531.94
491.003	552.94
491.221	527.94
491.439	550.94
491.657	580.94
491.874	570.94
492.092	587.94
492.31	569.94
492.527	562.94
492.745	582.94
492.963	595.94
493.18	571.94
493.398	573.94
493.615	596.94
493.833	579.94
494.05	587.94
494.268	606.94
494.485	606.94
494.703	588.94
494.92	590.94
495.138	608.94
495.355	592.94
495.573	617.94
495.79	611.94
496.008	594.94
496.225	591.94
496.442	615.94
496.66	597.94
496.877	601.94
497.094	629.94
497.312	615.94
497.529	639.94
497.746	627.94
497.963	632.94
498.181	638.94
498.398	633.94
498.615	656.94
498.832	672.94
499.049	650.94
499.267	695.94
499.484	699.94
499.701	711.94
499.918	713.94
500.135	757.94
500.352	770.94
500.569	786.94
500.786	805.94
501.003	786.94
501.22	772.94
501.437	761.94
501.654	742.94
501.871	730.94
