Data from 1989.PennyLincolnUp.Lamp.En5.5.200Scan.071819.P2_HRD10591_17-25-18-974.txt Node
Date: Thu Jul 18 17:25:18 EDT 2019
User: cochatt
Spectrometer: HR+D1059
Trigger mode: 1
Integration Time (sec): 1.000000E-1
Scans to average: 1
Electric dark correction enabled: true
Nonlinearity correction enabled: false
Boxcar width: 0
XAxis mode: Wavelengths
Number of Pixels in Spectrum: 2048
>>>>>Begin Spectral Data<<<<<
223.165	-11.56
223.4	-11.56
223.635	-11.56
223.869	-7.56
224.104	-11.56
224.338	-10.56
224.573	-20.56
224.808	-14.56
225.042	-9.56
225.277	-1.56
225.511	-10.56
225.746	7.44
225.98	-0.56
226.215	-7.56
226.449	27.44
226.683	16.44
226.918	24.44
227.152	30.44
227.387	20.44
227.621	36.44
227.856	34.44
228.09	37.44
228.324	49.44
228.559	60.44
228.793	59.44
229.027	88.44
229.262	118.44
229.496	117.44
229.73	134.44
229.964	154.44
230.199	123.44
230.433	99.44
230.667	103.44
230.901	126.44
231.136	108.44
231.37	97.44
231.604	110.44
231.838	110.44
232.072	114.44
232.306	106.44
232.541	117.44
232.775	122.44
233.009	107.44
233.243	102.44
233.477	131.44
233.711	110.44
233.945	116.44
234.179	128.44
234.413	124.44
234.647	120.44
234.881	102.44
235.115	106.44
235.349	112.44
235.583	114.44
235.817	136.44
236.051	124.44
236.285	136.44
236.519	136.44
236.753	149.44
236.987	153.44
237.221	192.44
237.455	235.44
237.689	202.44
237.922	146.44
238.156	141.44
238.39	128.44
238.624	113.44
238.858	120.44
239.091	126.44
239.325	119.44
239.559	119.44
239.793	135.44
240.027	133.44
240.26	144.44
240.494	163.44
240.728	156.44
240.961	139.44
241.195	144.44
241.429	164.44
241.662	142.44
241.896	130.44
242.13	135.44
242.363	133.44
242.597	139.44
242.83	133.44
243.064	144.44
243.298	143.44
243.531	132.44
243.765	138.44
243.998	160.44
244.232	130.44
244.465	137.44
244.699	146.44
244.932	154.44
245.166	163.44
245.399	153.44
245.633	147.44
245.866	164.44
246.099	155.44
246.333	168.44
246.566	160.44
246.8	146.44
247.033	163.44
247.266	168.44
247.5	157.44
247.733	178.44
247.966	186.44
248.2	195.44
248.433	185.44
248.666	181.44
248.899	191.44
249.133	222.44
249.366	232.44
249.599	215.44
249.832	191.44
250.066	195.44
250.299	199.44
250.532	203.44
250.765	223.44
250.998	250.44
251.231	242.44
251.465	249.44
251.698	234.44
251.931	234.44
252.164	226.44
252.397	222.44
252.63	228.44
252.863	222.44
253.096	240.44
253.329	243.44
253.562	235.44
253.795	242.44
254.028	254.44
254.261	232.44
254.494	241.44
254.727	287.44
254.96	315.44
255.193	322.44
255.426	266.44
255.659	274.44
255.892	277.44
256.124	262.44
256.357	270.44
256.59	260.44
256.823	247.44
257.056	248.44
257.289	238.44
257.521	242.44
257.754	228.44
257.987	242.44
258.22	204.44
258.452	232.44
258.685	210.44
258.918	238.44
259.151	232.44
259.383	235.44
259.616	226.44
259.849	240.44
260.081	262.44
260.314	272.44
260.547	293.44
260.779	256.44
261.012	260.44
261.244	264.44
261.477	268.44
261.71	251.44
261.942	256.44
262.175	254.44
262.407	256.44
262.64	236.44
262.872	231.44
263.105	238.44
263.337	227.44
263.57	217.44
263.802	225.44
264.035	219.44
264.267	226.44
264.499	234.44
264.732	230.44
264.964	229.44
265.197	238.44
265.429	251.44
265.661	240.44
265.894	238.44
266.126	232.44
266.358	235.44
266.591	240.44
266.823	252.44
267.055	239.44
267.287	247.44
267.52	251.44
267.752	260.44
267.984	266.44
268.216	234.44
268.448	267.44
268.681	269.44
268.913	270.44
269.145	291.44
269.377	306.44
269.609	298.44
269.841	315.44
270.073	293.44
270.306	319.44
270.538	359.44
270.77	360.44
271.002	353.44
271.234	331.44
271.466	336.44
271.698	338.44
271.93	348.44
272.162	344.44
272.394	351.44
272.626	355.44
272.858	339.44
273.09	317.44
273.322	315.44
273.553	296.44
273.785	298.44
274.017	296.44
274.249	291.44
274.481	291.44
274.713	307.44
274.945	309.44
275.176	282.44
275.408	284.44
275.64	296.44
275.872	287.44
276.104	284.44
276.335	289.44
276.567	313.44
276.799	299.44
277.031	344.44
277.262	350.44
277.494	384.44
277.726	347.44
277.957	316.44
278.189	326.44
278.421	307.44
278.652	324.44
278.884	302.44
279.115	290.44
279.347	316.44
279.579	286.44
279.81	308.44
280.042	279.44
280.273	295.44
280.505	304.44
280.736	295.44
280.968	297.44
281.199	284.44
281.431	279.44
281.662	308.44
281.894	306.44
282.125	299.44
282.356	309.44
282.588	336.44
282.819	337.44
283.051	308.44
283.282	297.44
283.513	304.44
283.745	308.44
283.976	297.44
284.207	293.44
284.439	320.44
284.67	306.44
284.901	307.44
285.132	305.44
285.364	292.44
285.595	293.44
285.826	292.44
286.057	304.44
286.288	282.44
286.52	314.44
286.751	299.44
286.982	306.44
287.213	316.44
287.444	305.44
287.675	308.44
287.906	331.44
288.138	331.44
288.369	322.44
288.6	335.44
288.831	341.44
289.062	307.44
289.293	315.44
289.524	324.44
289.755	313.44
289.986	308.44
290.217	307.44
290.448	311.44
290.679	313.44
290.91	308.44
291.141	308.44
291.371	312.44
291.602	321.44
291.833	311.44
292.064	308.44
292.295	321.44
292.526	318.44
292.757	318.44
292.987	303.44
293.218	314.44
293.449	311.44
293.68	320.44
293.91	331.44
294.141	314.44
294.372	297.44
294.603	310.44
294.833	320.44
295.064	324.44
295.295	323.44
295.525	310.44
295.756	312.44
295.987	338.44
296.217	356.44
296.448	373.44
296.679	354.44
296.909	320.44
297.14	314.44
297.37	329.44
297.601	341.44
297.831	329.44
298.062	315.44
298.292	341.44
298.523	324.44
298.753	338.44
298.984	308.44
299.214	327.44
299.445	309.44
299.675	337.44
299.905	348.44
300.136	340.44
300.366	328.44
300.597	344.44
300.827	367.44
301.057	345.44
301.288	357.44
301.518	337.44
301.748	330.44
301.979	347.44
302.209	354.44
302.439	374.44
302.669	340.44
302.9	348.44
303.13	335.44
303.36	335.44
303.59	352.44
303.82	354.44
304.051	372.44
304.281	349.44
304.511	359.44
304.741	345.44
304.971	333.44
305.201	359.44
305.431	338.44
305.661	350.44
305.891	350.44
306.121	350.44
306.352	374.44
306.582	359.44
306.812	365.44
307.042	350.44
307.272	360.44
307.502	362.44
307.731	361.44
307.961	374.44
308.191	352.44
308.421	362.44
308.651	377.44
308.881	389.44
309.111	359.44
309.341	376.44
309.571	386.44
309.8	423.44
310.03	416.44
310.26	403.44
310.49	418.44
310.72	420.44
310.949	436.44
311.179	438.44
311.409	422.44
311.639	428.44
311.868	407.44
312.098	407.44
312.328	424.44
312.557	449.44
312.787	428.44
313.017	452.44
313.246	423.44
313.476	410.44
313.706	419.44
313.935	418.44
314.165	444.44
314.394	459.44
314.624	441.44
314.853	433.44
315.083	423.44
315.312	406.44
315.542	385.44
315.771	422.44
316.001	419.44
316.23	402.44
316.46	398.44
316.689	412.44
316.919	426.44
317.148	421.44
317.377	419.44
317.607	441.44
317.836	420.44
318.065	404.44
318.295	397.44
318.524	406.44
318.753	431.44
318.983	405.44
319.212	410.44
319.441	433.44
319.67	444.44
319.9	404.44
320.129	433.44
320.358	416.44
320.587	418.44
320.816	446.44
321.046	434.44
321.275	431.44
321.504	439.44
321.733	449.44
321.962	464.44
322.191	483.44
322.42	470.44
322.649	511.44
322.878	522.44
323.108	514.44
323.337	539.44
323.566	579.44
323.795	634.44
324.024	674.44
324.253	823.44
324.482	1162.44
324.71	1804.44
324.939	2582.44
325.168	2296.44
325.397	1163.44
325.626	763.44
325.855	628.44
326.084	603.44
326.313	594.44
326.542	604.44
326.77	633.44
326.999	740.44
327.228	1029.44
327.457	1641.44
327.686	1950.44
327.914	1280.44
328.143	871.44
328.372	740.44
328.6	678.44
328.829	649.44
329.058	659.44
329.287	660.44
329.515	620.44
329.744	578.44
329.972	595.44
330.201	619.44
330.43	620.44
330.658	691.44
330.887	714.44
331.115	651.44
331.344	577.44
331.572	562.44
331.801	546.44
332.03	546.44
332.258	506.44
332.486	490.44
332.715	472.44
332.943	459.44
333.172	489.44
333.4	475.44
333.629	503.44
333.857	512.44
334.085	530.44
334.314	531.44
334.542	564.44
334.771	569.44
334.999	513.44
335.227	522.44
335.455	499.44
335.684	486.44
335.912	498.44
336.14	482.44
336.369	468.44
336.597	485.44
336.825	487.44
337.053	478.44
337.281	491.44
337.51	443.44
337.738	460.44
337.966	457.44
338.194	482.44
338.422	466.44
338.65	465.44
338.878	461.44
339.106	463.44
339.334	463.44
339.562	460.44
339.79	466.44
340.018	450.44
340.246	474.44
340.474	467.44
340.702	466.44
340.93	444.44
341.158	458.44
341.386	446.44
341.614	467.44
341.842	471.44
342.07	445.44
342.298	441.44
342.526	460.44
342.754	427.44
342.981	456.44
343.209	424.44
343.437	474.44
343.665	431.44
343.893	456.44
344.12	455.44
344.348	459.44
344.576	469.44
344.804	427.44
345.031	482.44
345.259	495.44
345.487	460.44
345.714	441.44
345.942	443.44
346.17	440.44
346.397	439.44
346.625	443.44
346.853	419.44
347.08	428.44
347.308	471.44
347.535	457.44
347.763	459.44
347.99	453.44
348.218	443.44
348.445	460.44
348.673	456.44
348.9	447.44
349.128	428.44
349.355	432.44
349.583	424.44
349.81	438.44
350.037	422.44
350.265	438.44
350.492	439.44
350.72	435.44
350.947	442.44
351.174	457.44
351.402	464.44
351.629	443.44
351.856	444.44
352.083	455.44
352.311	458.44
352.538	454.44
352.765	467.44
352.992	440.44
353.22	439.44
353.447	439.44
353.674	437.44
353.901	436.44
354.128	409.44
354.355	410.44
354.583	405.44
354.81	404.44
355.037	406.44
355.264	406.44
355.491	406.44
355.718	405.44
355.945	408.44
356.172	384.44
356.399	410.44
356.626	390.44
356.853	391.44
357.08	413.44
357.307	399.44
357.534	406.44
357.761	400.44
357.988	414.44
358.215	406.44
358.441	415.44
358.668	394.44
358.895	404.44
359.122	410.44
359.349	427.44
359.576	434.44
359.802	454.44
360.029	496.44
360.256	524.44
360.483	478.44
360.709	447.44
360.936	436.44
361.163	421.44
361.39	448.44
361.616	439.44
361.843	426.44
362.07	415.44
362.296	436.44
362.523	432.44
362.749	423.44
362.976	421.44
363.203	432.44
363.429	411.44
363.656	411.44
363.882	403.44
364.109	414.44
364.335	415.44
364.562	411.44
364.788	414.44
365.015	400.44
365.241	411.44
365.468	403.44
365.694	415.44
365.92	415.44
366.147	403.44
366.373	418.44
366.599	401.44
366.826	410.44
367.052	405.44
367.278	402.44
367.505	402.44
367.731	412.44
367.957	411.44
368.184	434.44
368.41	390.44
368.636	433.44
368.862	422.44
369.089	411.44
369.315	406.44
369.541	396.44
369.767	400.44
369.993	400.44
370.219	387.44
370.445	398.44
370.672	388.44
370.898	392.44
371.124	392.44
371.35	404.44
371.576	390.44
371.802	379.44
372.028	386.44
372.254	385.44
372.48	406.44
372.706	394.44
372.932	388.44
373.158	402.44
373.384	400.44
373.61	408.44
373.835	404.44
374.061	388.44
374.287	399.44
374.513	433.44
374.739	406.44
374.965	390.44
375.191	407.44
375.416	410.44
375.642	406.44
375.868	396.44
376.094	394.44
376.319	387.44
376.545	391.44
376.771	388.44
376.997	400.44
377.222	397.44
377.448	394.44
377.674	379.44
377.899	389.44
378.125	359.44
378.35	384.44
378.576	379.44
378.802	390.44
379.027	382.44
379.253	376.44
379.478	399.44
379.704	396.44
379.929	393.44
380.155	367.44
380.38	380.44
380.606	395.44
380.831	404.44
381.057	397.44
381.282	393.44
381.507	378.44
381.733	387.44
381.958	392.44
382.184	394.44
382.409	408.44
382.634	395.44
382.86	401.44
383.085	408.44
383.31	415.44
383.535	407.44
383.761	406.44
383.986	398.44
384.211	398.44
384.436	419.44
384.662	394.44
384.887	407.44
385.112	399.44
385.337	411.44
385.562	434.44
385.787	434.44
386.013	416.44
386.238	425.44
386.463	432.44
386.688	422.44
386.913	417.44
387.138	388.44
387.363	412.44
387.588	400.44
387.813	428.44
388.038	432.44
388.263	409.44
388.488	421.44
388.713	417.44
388.938	410.44
389.163	410.44
389.387	412.44
389.612	418.44
389.837	408.44
390.062	408.44
390.287	412.44
390.512	425.44
390.736	416.44
390.961	407.44
391.186	420.44
391.411	412.44
391.636	414.44
391.86	426.44
392.085	434.44
392.31	420.44
392.534	428.44
392.759	436.44
392.984	416.44
393.208	410.44
393.433	413.44
393.658	421.44
393.882	403.44
394.107	404.44
394.331	408.44
394.556	420.44
394.78	418.44
395.005	410.44
395.229	432.44
395.454	413.44
395.678	457.44
395.903	433.44
396.127	458.44
396.352	459.44
396.576	438.44
396.801	442.44
397.025	428.44
397.249	434.44
397.474	434.44
397.698	437.44
397.922	454.44
398.147	461.44
398.371	475.44
398.595	479.44
398.82	479.44
399.044	460.44
399.268	487.44
399.492	511.44
399.717	552.44
399.941	550.44
400.165	573.44
400.389	583.44
400.613	525.44
400.837	517.44
401.062	467.44
401.286	473.44
401.51	501.44
401.734	465.44
401.958	449.44
402.182	494.44
402.406	496.44
402.63	487.44
402.854	478.44
403.078	494.44
403.302	479.44
403.526	471.44
403.75	489.44
403.974	468.44
404.198	492.44
404.422	501.44
404.645	502.44
404.869	508.44
405.093	510.44
405.317	572.44
405.541	593.44
405.765	550.44
405.988	534.44
406.212	546.44
406.436	556.44
406.66	564.44
406.883	566.44
407.107	574.44
407.331	615.44
407.555	658.44
407.778	660.44
408.002	578.44
408.226	555.44
408.449	543.44
408.673	524.44
408.896	586.44
409.12	598.44
409.344	590.44
409.567	525.44
409.791	505.44
410.014	488.44
410.238	495.44
410.461	479.44
410.685	488.44
410.908	508.44
411.132	559.44
411.355	567.44
411.578	561.44
411.802	522.44
412.025	476.44
412.249	499.44
412.472	496.44
412.695	547.44
412.919	540.44
413.142	499.44
413.365	487.44
413.589	481.44
413.812	444.44
414.035	462.44
414.258	463.44
414.482	458.44
414.705	441.44
414.928	454.44
415.151	457.44
415.374	457.44
415.597	453.44
415.821	433.44
416.044	449.44
416.267	443.44
416.49	467.44
416.713	459.44
416.936	448.44
417.159	449.44
417.382	455.44
417.605	478.44
417.828	491.44
418.051	482.44
418.274	483.44
418.497	463.44
418.72	465.44
418.943	455.44
419.166	475.44
419.389	497.44
419.611	494.44
419.834	471.44
420.057	488.44
420.28	485.44
420.503	468.44
420.726	477.44
420.948	496.44
421.171	529.44
421.394	548.44
421.617	528.44
421.839	492.44
422.062	512.44
422.285	506.44
422.507	548.44
422.73	636.44
422.953	595.44
423.175	520.44
423.398	499.44
423.621	524.44
423.843	528.44
424.066	524.44
424.288	543.44
424.511	548.44
424.733	605.44
424.956	694.44
425.178	682.44
425.401	655.44
425.623	670.44
425.846	593.44
426.068	542.44
426.291	521.44
426.513	501.44
426.735	540.44
426.958	563.44
427.18	658.44
427.402	786.44
427.625	905.44
427.847	784.44
428.069	652.44
428.292	600.44
428.514	535.44
428.736	518.44
428.958	486.44
429.181	482.44
429.403	479.44
429.625	499.44
429.847	538.44
430.069	600.44
430.292	599.44
430.514	496.44
430.736	490.44
430.958	459.44
431.18	483.44
431.402	476.44
431.624	455.44
431.846	430.44
432.068	462.44
432.29	454.44
432.512	446.44
432.734	460.44
432.956	468.44
433.178	479.44
433.4	484.44
433.622	458.44
433.844	444.44
434.066	450.44
434.287	461.44
434.509	458.44
434.731	467.44
434.953	473.44
435.175	487.44
435.397	528.44
435.618	561.44
435.84	575.44
436.062	655.44
436.284	734.44
436.505	600.44
436.727	546.44
436.949	491.44
437.17	490.44
437.392	478.44
437.614	511.44
437.835	536.44
438.057	658.44
438.278	751.44
438.5	750.44
438.721	815.44
438.943	770.44
439.165	606.44
439.386	579.44
439.608	549.44
439.829	554.44
440.05	581.44
440.272	630.44
440.493	582.44
440.715	533.44
440.936	520.44
441.158	492.44
441.379	491.44
441.6	509.44
441.822	528.44
442.043	592.44
442.264	650.44
442.486	682.44
442.707	601.44
442.928	546.44
443.149	557.44
443.371	578.44
443.592	600.44
443.813	714.44
444.034	776.44
444.255	636.44
444.476	553.44
444.698	542.44
444.919	523.44
445.14	618.44
445.361	561.44
445.582	562.44
445.803	649.44
446.024	745.44
446.245	754.44
446.466	680.44
446.687	576.44
446.908	565.44
447.129	521.44
447.35	491.44
447.571	514.44
447.792	487.44
448.013	495.44
448.234	544.44
448.455	595.44
448.675	677.44
448.896	798.44
449.117	698.44
449.338	632.44
449.559	738.44
449.779	841.44
450	674.44
450.221	555.44
450.442	514.44
450.662	491.44
450.883	498.44
451.104	518.44
451.324	500.44
451.545	494.44
451.766	451.44
451.986	442.44
452.207	430.44
452.428	425.44
452.648	427.44
452.869	439.44
453.089	459.44
453.31	468.44
453.53	454.44
453.751	445.44
453.971	437.44
454.192	484.44
454.412	459.44
454.633	459.44
454.853	427.44
455.073	450.44
455.294	470.44
455.514	532.44
455.734	514.44
455.955	439.44
456.175	419.44
456.395	397.44
456.616	395.44
456.836	405.44
457.056	379.44
457.276	406.44
457.497	416.44
457.717	390.44
457.937	425.44
458.157	411.44
458.377	442.44
458.598	451.44
458.818	505.44
459.038	622.44
459.258	642.44
459.478	510.44
459.698	471.44
459.918	438.44
460.138	440.44
460.358	469.44
460.578	443.44
460.798	456.44
461.018	462.44
461.238	456.44
461.458	443.44
461.678	451.44
461.898	444.44
462.118	472.44
462.338	455.44
462.558	453.44
462.777	468.44
462.997	469.44
463.217	460.44
463.437	472.44
463.657	454.44
463.876	452.44
464.096	474.44
464.316	466.44
464.536	464.44
464.755	481.44
464.975	483.44
465.195	546.44
465.414	628.44
465.634	528.44
465.854	494.44
466.073	487.44
466.293	472.44
466.512	457.44
466.732	420.44
466.951	443.44
467.171	432.44
467.391	462.44
467.61	465.44
467.829	468.44
468.049	453.44
468.268	446.44
468.488	429.44
468.707	418.44
468.927	432.44
469.146	403.44
469.365	408.44
469.585	433.44
469.804	451.44
470.023	449.44
470.243	443.44
470.462	464.44
470.681	492.44
470.901	459.44
471.12	439.44
471.339	446.44
471.558	462.44
471.777	442.44
471.997	443.44
472.216	456.44
472.435	480.44
472.654	452.44
472.873	445.44
473.092	453.44
473.311	424.44
473.53	421.44
473.749	469.44
473.968	516.44
474.187	592.44
474.406	633.44
474.625	515.44
474.844	484.44
475.063	432.44
475.282	452.44
475.501	451.44
475.72	466.44
475.939	447.44
476.158	477.44
476.377	437.44
476.596	467.44
476.814	457.44
477.033	461.44
477.252	478.44
477.471	480.44
477.69	484.44
477.908	479.44
478.127	473.44
478.346	480.44
478.564	516.44
478.783	504.44
479.002	506.44
479.22	494.44
479.439	519.44
479.658	533.44
479.876	549.44
480.095	531.44
480.313	574.44
480.532	556.44
480.751	558.44
480.969	574.44
481.188	608.44
481.406	630.44
481.624	571.44
481.843	556.44
482.061	538.44
482.28	552.44
482.498	523.44
482.717	526.44
482.935	539.44
483.153	523.44
483.372	514.44
483.59	536.44
483.808	507.44
484.027	515.44
484.245	540.44
484.463	530.44
484.681	535.44
484.9	537.44
485.118	532.44
485.336	532.44
485.554	539.44
485.772	540.44
485.99	540.44
486.209	578.44
486.427	546.44
486.645	564.44
486.863	588.44
487.081	560.44
487.299	562.44
487.517	554.44
487.735	560.44
487.953	566.44
488.171	554.44
488.389	561.44
488.607	552.44
488.825	558.44
489.043	555.44
489.261	564.44
489.479	593.44
489.696	558.44
489.914	563.44
490.132	583.44
490.35	596.44
490.568	586.44
490.786	622.44
491.003	612.44
491.221	632.44
491.439	642.44
491.657	652.44
491.874	677.44
492.092	672.44
492.31	639.44
492.527	690.44
492.745	666.44
492.963	654.44
493.18	663.44
493.398	682.44
493.615	670.44
493.833	680.44
494.05	694.44
494.268	656.44
494.485	684.44
494.703	678.44
494.92	680.44
495.138	679.44
495.355	699.44
495.573	680.44
495.79	696.44
496.008	682.44
496.225	682.44
496.442	695.44
496.66	675.44
496.877	675.44
497.094	681.44
497.312	656.44
497.529	700.44
497.746	683.44
497.963	688.44
498.181	715.44
498.398	706.44
498.615	735.44
498.832	733.44
499.049	765.44
499.267	752.44
499.484	776.44
499.701	786.44
499.918	819.44
500.135	839.44
500.352	862.44
500.569	867.44
500.786	878.44
501.003	872.44
501.22	852.44
501.437	801.44
501.654	850.44
501.871	822.44
