Data from 1989.PennyLincolnUp.Lamp.En5.5.200Scan.071819.P2_HRD10591_17-26-07-974.txt Node
Date: Thu Jul 18 17:26:07 EDT 2019
User: cochatt
Spectrometer: HR+D1059
Trigger mode: 1
Integration Time (sec): 1.000000E-1
Scans to average: 1
Electric dark correction enabled: true
Nonlinearity correction enabled: false
Boxcar width: 0
XAxis mode: Wavelengths
Number of Pixels in Spectrum: 2048
>>>>>Begin Spectral Data<<<<<
223.165	2.62
223.4	2.62
223.635	2.62
223.869	-16.38
224.104	-16.38
224.338	-24.38
224.573	-16.38
224.808	-16.38
225.042	-12.38
225.277	-4.38
225.511	-15.38
225.746	4.62
225.98	5.62
226.215	16.62
226.449	6.62
226.683	14.62
226.918	25.62
227.152	45.62
227.387	14.62
227.621	36.62
227.856	40.62
228.09	44.62
228.324	36.62
228.559	46.62
228.793	55.62
229.027	97.62
229.262	109.62
229.496	126.62
229.73	135.62
229.964	164.62
230.199	126.62
230.433	110.62
230.667	110.62
230.901	127.62
231.136	106.62
231.37	108.62
231.604	104.62
231.838	119.62
232.072	107.62
232.306	113.62
232.541	102.62
232.775	85.62
233.009	113.62
233.243	96.62
233.477	121.62
233.711	113.62
233.945	114.62
234.179	111.62
234.413	135.62
234.647	128.62
234.881	120.62
235.115	112.62
235.349	133.62
235.583	122.62
235.817	133.62
236.051	133.62
236.285	141.62
236.519	129.62
236.753	120.62
236.987	156.62
237.221	196.62
237.455	256.62
237.689	191.62
237.922	150.62
238.156	149.62
238.39	137.62
238.624	125.62
238.858	135.62
239.091	138.62
239.325	121.62
239.559	120.62
239.793	140.62
240.027	129.62
240.26	136.62
240.494	167.62
240.728	161.62
240.961	152.62
241.195	161.62
241.429	150.62
241.662	130.62
241.896	148.62
242.13	131.62
242.363	144.62
242.597	152.62
242.83	143.62
243.064	136.62
243.298	148.62
243.531	150.62
243.765	152.62
243.998	132.62
244.232	148.62
244.465	157.62
244.699	135.62
244.932	146.62
245.166	165.62
245.399	156.62
245.633	149.62
245.866	161.62
246.099	146.62
246.333	156.62
246.566	138.62
246.8	150.62
247.033	157.62
247.266	169.62
247.5	164.62
247.733	160.62
247.966	178.62
248.2	184.62
248.433	201.62
248.666	198.62
248.899	198.62
249.133	231.62
249.366	239.62
249.599	206.62
249.832	221.62
250.066	201.62
250.299	203.62
250.532	223.62
250.765	235.62
250.998	245.62
251.231	262.62
251.465	259.62
251.698	225.62
251.931	224.62
252.164	219.62
252.397	221.62
252.63	206.62
252.863	244.62
253.096	234.62
253.329	267.62
253.562	232.62
253.795	258.62
254.028	240.62
254.261	245.62
254.494	258.62
254.727	266.62
254.96	314.62
255.193	325.62
255.426	297.62
255.659	280.62
255.892	285.62
256.124	296.62
256.357	306.62
256.59	288.62
256.823	252.62
257.056	228.62
257.289	246.62
257.521	264.62
257.754	242.62
257.987	243.62
258.22	233.62
258.452	239.62
258.685	232.62
258.918	248.62
259.151	241.62
259.383	246.62
259.616	249.62
259.849	254.62
260.081	259.62
260.314	276.62
260.547	290.62
260.779	278.62
261.012	259.62
261.244	260.62
261.477	254.62
261.71	262.62
261.942	249.62
262.175	278.62
262.407	267.62
262.64	242.62
262.872	237.62
263.105	233.62
263.337	252.62
263.57	241.62
263.802	243.62
264.035	245.62
264.267	212.62
264.499	242.62
264.732	236.62
264.964	233.62
265.197	244.62
265.429	241.62
265.661	239.62
265.894	239.62
266.126	232.62
266.358	231.62
266.591	244.62
266.823	252.62
267.055	246.62
267.287	261.62
267.52	247.62
267.752	258.62
267.984	267.62
268.216	250.62
268.448	276.62
268.681	277.62
268.913	270.62
269.145	295.62
269.377	307.62
269.609	312.62
269.841	309.62
270.073	309.62
270.306	326.62
270.538	360.62
270.77	346.62
271.002	343.62
271.234	345.62
271.466	344.62
271.698	351.62
271.93	355.62
272.162	352.62
272.394	342.62
272.626	352.62
272.858	334.62
273.09	312.62
273.322	323.62
273.553	310.62
273.785	296.62
274.017	304.62
274.249	297.62
274.481	278.62
274.713	295.62
274.945	309.62
275.176	305.62
275.408	305.62
275.64	294.62
275.872	274.62
276.104	309.62
276.335	296.62
276.567	304.62
276.799	329.62
277.031	349.62
277.262	346.62
277.494	360.62
277.726	339.62
277.957	308.62
278.189	313.62
278.421	307.62
278.652	288.62
278.884	316.62
279.115	313.62
279.347	317.62
279.579	300.62
279.81	303.62
280.042	287.62
280.273	308.62
280.505	306.62
280.736	300.62
280.968	305.62
281.199	291.62
281.431	304.62
281.662	296.62
281.894	291.62
282.125	312.62
282.356	300.62
282.588	341.62
282.819	341.62
283.051	305.62
283.282	287.62
283.513	307.62
283.745	316.62
283.976	315.62
284.207	312.62
284.439	303.62
284.67	305.62
284.901	300.62
285.132	321.62
285.364	316.62
285.595	310.62
285.826	316.62
286.057	313.62
286.288	317.62
286.52	303.62
286.751	317.62
286.982	317.62
287.213	319.62
287.444	308.62
287.675	327.62
287.906	312.62
288.138	329.62
288.369	337.62
288.6	316.62
288.831	336.62
289.062	346.62
289.293	327.62
289.524	332.62
289.755	308.62
289.986	323.62
290.217	312.62
290.448	309.62
290.679	304.62
290.91	322.62
291.141	325.62
291.371	320.62
291.602	315.62
291.833	321.62
292.064	310.62
292.295	322.62
292.526	322.62
292.757	319.62
292.987	324.62
293.218	324.62
293.449	333.62
293.68	349.62
293.91	344.62
294.141	312.62
294.372	334.62
294.603	328.62
294.833	326.62
295.064	318.62
295.295	334.62
295.525	338.62
295.756	337.62
295.987	333.62
296.217	372.62
296.448	370.62
296.679	345.62
296.909	352.62
297.14	329.62
297.37	328.62
297.601	333.62
297.831	332.62
298.062	345.62
298.292	332.62
298.523	338.62
298.753	331.62
298.984	328.62
299.214	334.62
299.445	336.62
299.675	337.62
299.905	336.62
300.136	340.62
300.366	345.62
300.597	357.62
300.827	348.62
301.057	358.62
301.288	374.62
301.518	359.62
301.748	332.62
301.979	349.62
302.209	353.62
302.439	367.62
302.669	345.62
302.9	376.62
303.13	368.62
303.36	359.62
303.59	380.62
303.82	366.62
304.051	374.62
304.281	390.62
304.511	384.62
304.741	340.62
304.971	362.62
305.201	349.62
305.431	389.62
305.661	345.62
305.891	364.62
306.121	376.62
306.352	369.62
306.582	370.62
306.812	369.62
307.042	342.62
307.272	376.62
307.502	368.62
307.731	391.62
307.961	388.62
308.191	390.62
308.421	362.62
308.651	380.62
308.881	386.62
309.111	361.62
309.341	395.62
309.571	400.62
309.8	388.62
310.03	409.62
310.26	410.62
310.49	407.62
310.72	425.62
310.949	442.62
311.179	446.62
311.409	413.62
311.639	424.62
311.868	438.62
312.098	409.62
312.328	432.62
312.557	444.62
312.787	475.62
313.017	462.62
313.246	431.62
313.476	408.62
313.706	418.62
313.935	432.62
314.165	437.62
314.394	461.62
314.624	464.62
314.853	431.62
315.083	434.62
315.312	434.62
315.542	421.62
315.771	424.62
316.001	415.62
316.23	418.62
316.46	419.62
316.689	396.62
316.919	439.62
317.148	430.62
317.377	440.62
317.607	444.62
317.836	429.62
318.065	416.62
318.295	414.62
318.524	411.62
318.753	415.62
318.983	422.62
319.212	416.62
319.441	441.62
319.67	425.62
319.9	432.62
320.129	429.62
320.358	424.62
320.587	413.62
320.816	416.62
321.046	453.62
321.275	458.62
321.504	453.62
321.733	461.62
321.962	462.62
322.191	495.62
322.42	472.62
322.649	502.62
322.878	506.62
323.108	532.62
323.337	552.62
323.566	613.62
323.795	624.62
324.024	671.62
324.253	833.62
324.482	1213.62
324.71	1841.62
324.939	2639.62
325.168	2319.62
325.397	1198.62
325.626	792.62
325.855	683.62
326.084	624.62
326.313	583.62
326.542	604.62
326.77	639.62
326.999	800.62
327.228	1087.62
327.457	1645.62
327.686	1994.62
327.914	1364.62
328.143	872.62
328.372	769.62
328.6	695.62
328.829	674.62
329.058	667.62
329.287	693.62
329.515	673.62
329.744	620.62
329.972	632.62
330.201	675.62
330.43	737.62
330.658	725.62
330.887	751.62
331.115	688.62
331.344	607.62
331.572	576.62
331.801	564.62
332.03	573.62
332.258	549.62
332.486	531.62
332.715	524.62
332.943	509.62
333.172	516.62
333.4	542.62
333.629	544.62
333.857	560.62
334.085	580.62
334.314	621.62
334.542	670.62
334.771	713.62
334.999	614.62
335.227	552.62
335.455	526.62
335.684	506.62
335.912	520.62
336.14	504.62
336.369	485.62
336.597	501.62
336.825	512.62
337.053	494.62
337.281	483.62
337.51	477.62
337.738	487.62
337.966	486.62
338.194	480.62
338.422	482.62
338.65	479.62
338.878	450.62
339.106	456.62
339.334	458.62
339.562	477.62
339.79	479.62
340.018	462.62
340.246	437.62
340.474	478.62
340.702	496.62
340.93	475.62
341.158	487.62
341.386	476.62
341.614	485.62
341.842	472.62
342.07	456.62
342.298	440.62
342.526	447.62
342.754	440.62
342.981	423.62
343.209	444.62
343.437	477.62
343.665	440.62
343.893	465.62
344.12	462.62
344.348	478.62
344.576	457.62
344.804	474.62
345.031	488.62
345.259	496.62
345.487	456.62
345.714	466.62
345.942	438.62
346.17	468.62
346.397	454.62
346.625	455.62
346.853	462.62
347.08	450.62
347.308	456.62
347.535	455.62
347.763	469.62
347.99	465.62
348.218	460.62
348.445	480.62
348.673	466.62
348.9	455.62
349.128	418.62
349.355	444.62
349.583	432.62
349.81	401.62
350.037	434.62
350.265	423.62
350.492	444.62
350.72	421.62
350.947	438.62
351.174	454.62
351.402	449.62
351.629	440.62
351.856	458.62
352.083	470.62
352.311	476.62
352.538	458.62
352.765	462.62
352.992	453.62
353.22	473.62
353.447	450.62
353.674	462.62
353.901	430.62
354.128	417.62
354.355	406.62
354.583	415.62
354.81	411.62
355.037	425.62
355.264	418.62
355.491	415.62
355.718	411.62
355.945	394.62
356.172	406.62
356.399	400.62
356.626	398.62
356.853	415.62
357.08	391.62
357.307	407.62
357.534	397.62
357.761	395.62
357.988	378.62
358.215	406.62
358.441	404.62
358.668	404.62
358.895	412.62
359.122	429.62
359.349	432.62
359.576	446.62
359.802	478.62
360.029	489.62
360.256	520.62
360.483	471.62
360.709	452.62
360.936	451.62
361.163	441.62
361.39	456.62
361.616	453.62
361.843	442.62
362.07	442.62
362.296	442.62
362.523	431.62
362.749	420.62
362.976	428.62
363.203	439.62
363.429	414.62
363.656	414.62
363.882	405.62
364.109	414.62
364.335	410.62
364.562	400.62
364.788	410.62
365.015	433.62
365.241	398.62
365.468	412.62
365.694	406.62
365.92	412.62
366.147	419.62
366.373	429.62
366.599	406.62
366.826	413.62
367.052	408.62
367.278	407.62
367.505	407.62
367.731	403.62
367.957	391.62
368.184	394.62
368.41	413.62
368.636	430.62
368.862	446.62
369.089	422.62
369.315	416.62
369.541	398.62
369.767	415.62
369.993	395.62
370.219	408.62
370.445	411.62
370.672	402.62
370.898	387.62
371.124	396.62
371.35	397.62
371.576	391.62
371.802	419.62
372.028	391.62
372.254	405.62
372.48	401.62
372.706	405.62
372.932	413.62
373.158	395.62
373.384	407.62
373.61	403.62
373.835	409.62
374.061	395.62
374.287	412.62
374.513	403.62
374.739	426.62
374.965	433.62
375.191	398.62
375.416	412.62
375.642	407.62
375.868	416.62
376.094	402.62
376.319	406.62
376.545	414.62
376.771	390.62
376.997	404.62
377.222	402.62
377.448	382.62
377.674	393.62
377.899	388.62
378.125	389.62
378.35	388.62
378.576	388.62
378.802	399.62
379.027	389.62
379.253	387.62
379.478	372.62
379.704	394.62
379.929	390.62
380.155	383.62
380.38	393.62
380.606	395.62
380.831	411.62
381.057	397.62
381.282	376.62
381.507	388.62
381.733	406.62
381.958	397.62
382.184	411.62
382.409	394.62
382.634	420.62
382.86	393.62
383.085	400.62
383.31	408.62
383.535	414.62
383.761	420.62
383.986	402.62
384.211	421.62
384.436	402.62
384.662	414.62
384.887	405.62
385.112	403.62
385.337	431.62
385.562	417.62
385.787	401.62
386.013	421.62
386.238	432.62
386.463	432.62
386.688	427.62
386.913	412.62
387.138	429.62
387.363	430.62
387.588	415.62
387.813	402.62
388.038	417.62
388.263	431.62
388.488	403.62
388.713	420.62
388.938	422.62
389.163	441.62
389.387	428.62
389.612	406.62
389.837	415.62
390.062	433.62
390.287	434.62
390.512	418.62
390.736	417.62
390.961	408.62
391.186	424.62
391.411	408.62
391.636	412.62
391.86	426.62
392.085	423.62
392.31	442.62
392.534	452.62
392.759	428.62
392.984	430.62
393.208	438.62
393.433	432.62
393.658	412.62
393.882	405.62
394.107	423.62
394.331	409.62
394.556	411.62
394.78	406.62
395.005	402.62
395.229	423.62
395.454	428.62
395.678	414.62
395.903	436.62
396.127	461.62
396.352	470.62
396.576	445.62
396.801	440.62
397.025	457.62
397.249	449.62
397.474	455.62
397.698	438.62
397.922	466.62
398.147	495.62
398.371	493.62
398.595	449.62
398.82	456.62
399.044	467.62
399.268	498.62
399.492	498.62
399.717	510.62
399.941	574.62
400.165	564.62
400.389	576.62
400.613	558.62
400.837	511.62
401.062	496.62
401.286	482.62
401.51	499.62
401.734	477.62
401.958	482.62
402.182	487.62
402.406	492.62
402.63	496.62
402.854	477.62
403.078	473.62
403.302	475.62
403.526	483.62
403.75	469.62
403.974	484.62
404.198	495.62
404.422	498.62
404.645	502.62
404.869	513.62
405.093	541.62
405.317	610.62
405.541	646.62
405.765	572.62
405.988	527.62
406.212	541.62
406.436	547.62
406.66	582.62
406.883	541.62
407.107	565.62
407.331	576.62
407.555	669.62
407.778	648.62
408.002	622.62
408.226	552.62
408.449	548.62
408.673	547.62
408.896	573.62
409.12	601.62
409.344	580.62
409.567	542.62
409.791	506.62
410.014	482.62
410.238	504.62
410.461	502.62
410.685	528.62
410.908	516.62
411.132	549.62
411.355	571.62
411.578	552.62
411.802	516.62
412.025	509.62
412.249	532.62
412.472	547.62
412.695	621.62
412.919	601.62
413.142	544.62
413.365	520.62
413.589	495.62
413.812	468.62
414.035	484.62
414.258	483.62
414.482	479.62
414.705	472.62
414.928	459.62
415.151	469.62
415.374	456.62
415.597	474.62
415.821	455.62
416.044	449.62
416.267	457.62
416.49	449.62
416.713	455.62
416.936	480.62
417.159	453.62
417.382	487.62
417.605	484.62
417.828	492.62
418.051	489.62
418.274	500.62
418.497	463.62
418.72	465.62
418.943	460.62
419.166	489.62
419.389	498.62
419.611	514.62
419.834	508.62
420.057	532.62
420.28	515.62
420.503	484.62
420.726	500.62
420.948	510.62
421.171	549.62
421.394	580.62
421.617	512.62
421.839	500.62
422.062	505.62
422.285	518.62
422.507	586.62
422.73	638.62
422.953	635.62
423.175	521.62
423.398	520.62
423.621	527.62
423.843	526.62
424.066	548.62
424.288	534.62
424.511	544.62
424.733	622.62
424.956	710.62
425.178	663.62
425.401	652.62
425.623	680.62
425.846	585.62
426.068	535.62
426.291	541.62
426.513	530.62
426.735	533.62
426.958	587.62
427.18	689.62
427.402	812.62
427.625	904.62
427.847	792.62
428.069	688.62
428.292	593.62
428.514	572.62
428.736	547.62
428.958	514.62
429.181	521.62
429.403	496.62
429.625	488.62
429.847	535.62
430.069	612.62
430.292	607.62
430.514	540.62
430.736	492.62
430.958	502.62
431.18	480.62
431.402	480.62
431.624	475.62
431.846	466.62
432.068	456.62
432.29	477.62
432.512	468.62
432.734	471.62
432.956	462.62
433.178	468.62
433.4	481.62
433.622	467.62
433.844	461.62
434.066	458.62
434.287	460.62
434.509	456.62
434.731	472.62
434.953	477.62
435.175	485.62
435.397	536.62
435.618	571.62
435.84	610.62
436.062	679.62
436.284	772.62
436.505	633.62
436.727	556.62
436.949	502.62
437.17	500.62
437.392	503.62
437.614	519.62
437.835	548.62
438.057	652.62
438.278	740.62
438.5	734.62
438.721	804.62
438.943	822.62
439.165	618.62
439.386	574.62
439.608	550.62
439.829	553.62
440.05	606.62
440.272	637.62
440.493	595.62
440.715	547.62
440.936	501.62
441.158	517.62
441.379	510.62
441.6	510.62
441.822	515.62
442.043	576.62
442.264	668.62
442.486	732.62
442.707	600.62
442.928	561.62
443.149	556.62
443.371	576.62
443.592	626.62
443.813	694.62
444.034	777.62
444.255	636.62
444.476	560.62
444.698	536.62
444.919	521.62
445.14	651.62
445.361	606.62
445.582	604.62
445.803	641.62
446.024	790.62
446.245	752.62
446.466	699.62
446.687	600.62
446.908	530.62
447.129	519.62
447.35	494.62
447.571	511.62
447.792	501.62
448.013	514.62
448.234	512.62
448.455	568.62
448.675	712.62
448.896	832.62
449.117	680.62
449.338	653.62
449.559	749.62
449.779	839.62
450	693.62
450.221	550.62
450.442	510.62
450.662	503.62
450.883	500.62
451.104	526.62
451.324	527.62
451.545	472.62
451.766	470.62
451.986	455.62
452.207	431.62
452.428	442.62
452.648	447.62
452.869	433.62
453.089	449.62
453.31	457.62
453.53	447.62
453.751	433.62
453.971	441.62
454.192	463.62
454.412	468.62
454.633	444.62
454.853	437.62
455.073	441.62
455.294	472.62
455.514	565.62
455.734	541.62
455.955	442.62
456.175	421.62
456.395	421.62
456.616	414.62
456.836	387.62
457.056	379.62
457.276	401.62
457.497	408.62
457.717	409.62
457.937	413.62
458.157	415.62
458.377	432.62
458.598	440.62
458.818	511.62
459.038	606.62
459.258	624.62
459.478	502.62
459.698	466.62
459.918	463.62
460.138	465.62
460.358	465.62
460.578	459.62
460.798	426.62
461.018	467.62
461.238	496.62
461.458	442.62
461.678	469.62
461.898	455.62
462.118	455.62
462.338	463.62
462.558	468.62
462.777	477.62
462.997	471.62
463.217	466.62
463.437	492.62
463.657	484.62
463.876	482.62
464.096	469.62
464.316	505.62
464.536	484.62
464.755	484.62
464.975	513.62
465.195	539.62
465.414	649.62
465.634	552.62
465.854	505.62
466.073	476.62
466.293	460.62
466.512	442.62
466.732	454.62
466.951	444.62
467.171	436.62
467.391	446.62
467.61	446.62
467.829	437.62
468.049	463.62
468.268	471.62
468.488	465.62
468.707	438.62
468.927	422.62
469.146	443.62
469.365	442.62
469.585	441.62
469.804	457.62
470.023	449.62
470.243	456.62
470.462	445.62
470.681	476.62
470.901	474.62
471.12	475.62
471.339	461.62
471.558	465.62
471.777	457.62
471.997	438.62
472.216	473.62
472.435	556.62
472.654	518.62
472.873	478.62
473.092	472.62
473.311	452.62
473.53	472.62
473.749	453.62
473.968	500.62
474.187	617.62
474.406	648.62
474.625	540.62
474.844	456.62
475.063	479.62
475.282	469.62
475.501	442.62
475.72	469.62
475.939	463.62
476.158	461.62
476.377	476.62
476.596	476.62
476.814	488.62
477.033	482.62
477.252	481.62
477.471	470.62
477.69	490.62
477.908	476.62
478.127	476.62
478.346	502.62
478.564	483.62
478.783	499.62
479.002	518.62
479.22	532.62
479.439	521.62
479.658	556.62
479.876	544.62
480.095	576.62
480.313	604.62
480.532	570.62
480.751	573.62
480.969	575.62
481.188	682.62
481.406	782.62
481.624	645.62
481.843	596.62
482.061	572.62
482.28	560.62
482.498	549.62
482.717	542.62
482.935	558.62
483.153	550.62
483.372	518.62
483.59	558.62
483.808	566.62
484.027	533.62
484.245	551.62
484.463	542.62
484.681	542.62
484.9	550.62
485.118	571.62
485.336	544.62
485.554	576.62
485.772	547.62
485.99	554.62
486.209	559.62
486.427	561.62
486.645	572.62
486.863	608.62
487.081	597.62
487.299	608.62
487.517	555.62
487.735	588.62
487.953	587.62
488.171	570.62
488.389	564.62
488.607	586.62
488.825	591.62
489.043	604.62
489.261	586.62
489.479	598.62
489.696	570.62
489.914	606.62
490.132	607.62
490.35	611.62
490.568	603.62
490.786	638.62
491.003	629.62
491.221	626.62
491.439	697.62
491.657	668.62
491.874	669.62
492.092	693.62
492.31	701.62
492.527	676.62
492.745	690.62
492.963	701.62
493.18	690.62
493.398	691.62
493.615	718.62
493.833	738.62
494.05	689.62
494.268	704.62
494.485	689.62
494.703	678.62
494.92	706.62
495.138	694.62
495.355	723.62
495.573	722.62
495.79	681.62
496.008	684.62
496.225	694.62
496.442	693.62
496.66	722.62
496.877	697.62
497.094	692.62
497.312	663.62
497.529	705.62
497.746	706.62
497.963	734.62
498.181	736.62
498.398	735.62
498.615	760.62
498.832	759.62
499.049	770.62
499.267	752.62
499.484	796.62
499.701	811.62
499.918	804.62
500.135	860.62
500.352	877.62
500.569	880.62
500.786	889.62
501.003	894.62
501.22	874.62
501.437	864.62
501.654	846.62
501.871	830.62
502.088	842.62
