Data from 1989.PennyLincolnUp.Lamp.En5.5.200Scan.071819.P2_HRD10591_17-26-09-973.txt Node
Date: Thu Jul 18 17:26:09 EDT 2019
User: cochatt
Spectrometer: HR+D1059
Trigger mode: 1
Integration Time (sec): 1.000000E-1
Scans to average: 1
Electric dark correction enabled: true
Nonlinearity correction enabled: false
Boxcar width: 0
XAxis mode: Wavelengths
Number of Pixels in Spectrum: 2048
>>>>>Begin Spectral Data<<<<<
223.165	-18.5
223.4	-18.5
223.635	-18.5
223.869	-15.5
224.104	-28.5
224.338	-9.5
224.573	3.5
224.808	-12.5
225.042	-13.5
225.277	-10.5
225.511	4.5
225.746	5.5
225.98	-12.5
226.215	-4.5
226.449	27.5
226.683	37.5
226.918	20.5
227.152	26.5
227.387	43.5
227.621	36.5
227.856	42.5
228.09	41.5
228.324	37.5
228.559	57.5
228.793	75.5
229.027	104.5
229.262	104.5
229.496	127.5
229.73	135.5
229.964	163.5
230.199	130.5
230.433	117.5
230.667	120.5
230.901	137.5
231.136	125.5
231.37	111.5
231.604	121.5
231.838	117.5
232.072	114.5
232.306	127.5
232.541	118.5
232.775	111.5
233.009	124.5
233.243	118.5
233.477	119.5
233.711	124.5
233.945	97.5
234.179	113.5
234.413	130.5
234.647	118.5
234.881	124.5
235.115	125.5
235.349	127.5
235.583	129.5
235.817	131.5
236.051	123.5
236.285	135.5
236.519	137.5
236.753	133.5
236.987	146.5
237.221	192.5
237.455	242.5
237.689	209.5
237.922	141.5
238.156	143.5
238.39	142.5
238.624	139.5
238.858	144.5
239.091	150.5
239.325	124.5
239.559	130.5
239.793	140.5
240.027	142.5
240.26	155.5
240.494	166.5
240.728	166.5
240.961	159.5
241.195	149.5
241.429	164.5
241.662	143.5
241.896	145.5
242.13	135.5
242.363	143.5
242.597	139.5
242.83	136.5
243.064	142.5
243.298	136.5
243.531	152.5
243.765	150.5
243.998	141.5
244.232	145.5
244.465	152.5
244.699	160.5
244.932	152.5
245.166	135.5
245.399	168.5
245.633	169.5
245.866	148.5
246.099	167.5
246.333	159.5
246.566	152.5
246.8	165.5
247.033	168.5
247.266	149.5
247.5	170.5
247.733	180.5
247.966	183.5
248.2	195.5
248.433	180.5
248.666	180.5
248.899	203.5
249.133	201.5
249.366	224.5
249.599	215.5
249.832	201.5
250.066	205.5
250.299	198.5
250.532	225.5
250.765	246.5
250.998	269.5
251.231	242.5
251.465	235.5
251.698	214.5
251.931	208.5
252.164	229.5
252.397	218.5
252.63	224.5
252.863	222.5
253.096	251.5
253.329	251.5
253.562	274.5
253.795	245.5
254.028	240.5
254.261	234.5
254.494	235.5
254.727	288.5
254.96	305.5
255.193	309.5
255.426	296.5
255.659	252.5
255.892	276.5
256.124	300.5
256.357	286.5
256.59	281.5
256.823	258.5
257.056	248.5
257.289	244.5
257.521	233.5
257.754	223.5
257.987	225.5
258.22	228.5
258.452	245.5
258.685	231.5
258.918	235.5
259.151	233.5
259.383	244.5
259.616	247.5
259.849	249.5
260.081	250.5
260.314	281.5
260.547	286.5
260.779	292.5
261.012	254.5
261.244	240.5
261.477	251.5
261.71	240.5
261.942	257.5
262.175	267.5
262.407	262.5
262.64	237.5
262.872	258.5
263.105	245.5
263.337	232.5
263.57	225.5
263.802	232.5
264.035	237.5
264.267	227.5
264.499	227.5
264.732	260.5
264.964	255.5
265.197	233.5
265.429	237.5
265.661	240.5
265.894	255.5
266.126	233.5
266.358	245.5
266.591	248.5
266.823	261.5
267.055	245.5
267.287	253.5
267.52	233.5
267.752	238.5
267.984	255.5
268.216	254.5
268.448	256.5
268.681	256.5
268.913	281.5
269.145	296.5
269.377	299.5
269.609	316.5
269.841	306.5
270.073	315.5
270.306	326.5
270.538	345.5
270.77	349.5
271.002	337.5
271.234	326.5
271.466	341.5
271.698	361.5
271.93	352.5
272.162	337.5
272.394	374.5
272.626	340.5
272.858	309.5
273.09	316.5
273.322	320.5
273.553	301.5
273.785	323.5
274.017	301.5
274.249	272.5
274.481	299.5
274.713	289.5
274.945	287.5
275.176	310.5
275.408	293.5
275.64	292.5
275.872	292.5
276.104	296.5
276.335	290.5
276.567	306.5
276.799	344.5
277.031	357.5
277.262	353.5
277.494	342.5
277.726	328.5
277.957	325.5
278.189	326.5
278.421	310.5
278.652	296.5
278.884	315.5
279.115	300.5
279.347	291.5
279.579	305.5
279.81	301.5
280.042	282.5
280.273	299.5
280.505	311.5
280.736	283.5
280.968	296.5
281.199	307.5
281.431	283.5
281.662	286.5
281.894	296.5
282.125	320.5
282.356	301.5
282.588	350.5
282.819	361.5
283.051	304.5
283.282	301.5
283.513	292.5
283.745	293.5
283.976	309.5
284.207	315.5
284.439	289.5
284.67	305.5
284.901	296.5
285.132	315.5
285.364	286.5
285.595	298.5
285.826	291.5
286.057	311.5
286.288	294.5
286.52	300.5
286.751	321.5
286.982	301.5
287.213	316.5
287.444	314.5
287.675	316.5
287.906	311.5
288.138	336.5
288.369	334.5
288.6	325.5
288.831	316.5
289.062	318.5
289.293	317.5
289.524	329.5
289.755	342.5
289.986	329.5
290.217	328.5
290.448	318.5
290.679	307.5
290.91	295.5
291.141	326.5
291.371	315.5
291.602	319.5
291.833	315.5
292.064	307.5
292.295	324.5
292.526	325.5
292.757	312.5
292.987	320.5
293.218	309.5
293.449	327.5
293.68	298.5
293.91	314.5
294.141	327.5
294.372	316.5
294.603	324.5
294.833	306.5
295.064	330.5
295.295	315.5
295.525	326.5
295.756	313.5
295.987	318.5
296.217	372.5
296.448	348.5
296.679	339.5
296.909	341.5
297.14	332.5
297.37	337.5
297.601	334.5
297.831	349.5
298.062	347.5
298.292	331.5
298.523	327.5
298.753	327.5
298.984	331.5
299.214	326.5
299.445	320.5
299.675	328.5
299.905	332.5
300.136	320.5
300.366	329.5
300.597	326.5
300.827	343.5
301.057	344.5
301.288	356.5
301.518	361.5
301.748	355.5
301.979	357.5
302.209	338.5
302.439	335.5
302.669	340.5
302.9	368.5
303.13	345.5
303.36	359.5
303.59	352.5
303.82	373.5
304.051	372.5
304.281	374.5
304.511	356.5
304.741	343.5
304.971	366.5
305.201	334.5
305.431	340.5
305.661	352.5
305.891	354.5
306.121	362.5
306.352	364.5
306.582	371.5
306.812	361.5
307.042	337.5
307.272	354.5
307.502	367.5
307.731	367.5
307.961	370.5
308.191	377.5
308.421	365.5
308.651	388.5
308.881	381.5
309.111	396.5
309.341	388.5
309.571	379.5
309.8	392.5
310.03	389.5
310.26	408.5
310.49	396.5
310.72	417.5
310.949	423.5
311.179	420.5
311.409	407.5
311.639	409.5
311.868	424.5
312.098	422.5
312.328	434.5
312.557	449.5
312.787	461.5
313.017	449.5
313.246	416.5
313.476	422.5
313.706	409.5
313.935	413.5
314.165	436.5
314.394	437.5
314.624	430.5
314.853	427.5
315.083	402.5
315.312	410.5
315.542	412.5
315.771	410.5
316.001	408.5
316.23	405.5
316.46	401.5
316.689	412.5
316.919	424.5
317.148	412.5
317.377	412.5
317.607	425.5
317.836	422.5
318.065	410.5
318.295	411.5
318.524	418.5
318.753	389.5
318.983	419.5
319.212	442.5
319.441	440.5
319.67	444.5
319.9	434.5
320.129	397.5
320.358	421.5
320.587	427.5
320.816	438.5
321.046	448.5
321.275	429.5
321.504	435.5
321.733	462.5
321.962	449.5
322.191	452.5
322.42	499.5
322.649	502.5
322.878	508.5
323.108	512.5
323.337	564.5
323.566	570.5
323.795	611.5
324.024	683.5
324.253	828.5
324.482	1187.5
324.71	1806.5
324.939	2629.5
325.168	2306.5
325.397	1145.5
325.626	772.5
325.855	645.5
326.084	609.5
326.313	567.5
326.542	599.5
326.77	639.5
326.999	765.5
327.228	1052.5
327.457	1607.5
327.686	1947.5
327.914	1309.5
328.143	836.5
328.372	759.5
328.6	706.5
328.829	652.5
329.058	667.5
329.287	699.5
329.515	673.5
329.744	603.5
329.972	618.5
330.201	638.5
330.43	718.5
330.658	734.5
330.887	722.5
331.115	722.5
331.344	597.5
331.572	572.5
331.801	562.5
332.03	552.5
332.258	546.5
332.486	522.5
332.715	504.5
332.943	493.5
333.172	510.5
333.4	511.5
333.629	532.5
333.857	534.5
334.085	555.5
334.314	630.5
334.542	676.5
334.771	698.5
334.999	601.5
335.227	531.5
335.455	524.5
335.684	512.5
335.912	519.5
336.14	487.5
336.369	485.5
336.597	484.5
336.825	498.5
337.053	472.5
337.281	483.5
337.51	472.5
337.738	479.5
337.966	489.5
338.194	477.5
338.422	469.5
338.65	470.5
338.878	450.5
339.106	467.5
339.334	467.5
339.562	464.5
339.79	462.5
340.018	461.5
340.246	477.5
340.474	471.5
340.702	459.5
340.93	453.5
341.158	463.5
341.386	447.5
341.614	480.5
341.842	450.5
342.07	442.5
342.298	452.5
342.526	438.5
342.754	441.5
342.981	459.5
343.209	409.5
343.437	436.5
343.665	455.5
343.893	454.5
344.12	464.5
344.348	456.5
344.576	454.5
344.804	476.5
345.031	459.5
345.259	510.5
345.487	483.5
345.714	454.5
345.942	443.5
346.17	440.5
346.397	446.5
346.625	437.5
346.853	452.5
347.08	434.5
347.308	438.5
347.535	452.5
347.763	460.5
347.99	469.5
348.218	470.5
348.445	471.5
348.673	466.5
348.9	445.5
349.128	411.5
349.355	423.5
349.583	445.5
349.81	428.5
350.037	426.5
350.265	418.5
350.492	440.5
350.72	438.5
350.947	425.5
351.174	435.5
351.402	463.5
351.629	443.5
351.856	447.5
352.083	442.5
352.311	469.5
352.538	477.5
352.765	454.5
352.992	448.5
353.22	456.5
353.447	441.5
353.674	444.5
353.901	419.5
354.128	419.5
354.355	393.5
354.583	402.5
354.81	404.5
355.037	393.5
355.264	397.5
355.491	384.5
355.718	393.5
355.945	392.5
356.172	410.5
356.399	397.5
356.626	403.5
356.853	399.5
357.08	395.5
357.307	408.5
357.534	398.5
357.761	412.5
357.988	382.5
358.215	414.5
358.441	405.5
358.668	409.5
358.895	411.5
359.122	417.5
359.349	421.5
359.576	449.5
359.802	436.5
360.029	490.5
360.256	508.5
360.483	488.5
360.709	435.5
360.936	433.5
361.163	441.5
361.39	459.5
361.616	457.5
361.843	445.5
362.07	473.5
362.296	439.5
362.523	450.5
362.749	426.5
362.976	440.5
363.203	418.5
363.429	408.5
363.656	417.5
363.882	405.5
364.109	414.5
364.335	422.5
364.562	405.5
364.788	412.5
365.015	406.5
365.241	395.5
365.468	425.5
365.694	436.5
365.92	414.5
366.147	405.5
366.373	403.5
366.599	400.5
366.826	388.5
367.052	392.5
367.278	402.5
367.505	425.5
367.731	397.5
367.957	411.5
368.184	408.5
368.41	411.5
368.636	419.5
368.862	440.5
369.089	407.5
369.315	405.5
369.541	390.5
369.767	416.5
369.993	406.5
370.219	414.5
370.445	399.5
370.672	388.5
370.898	391.5
371.124	398.5
371.35	410.5
371.576	397.5
371.802	384.5
372.028	399.5
372.254	424.5
372.48	392.5
372.706	404.5
372.932	396.5
373.158	408.5
373.384	406.5
373.61	392.5
373.835	412.5
374.061	401.5
374.287	399.5
374.513	414.5
374.739	391.5
374.965	388.5
375.191	396.5
375.416	410.5
375.642	399.5
375.868	402.5
376.094	394.5
376.319	397.5
376.545	405.5
376.771	389.5
376.997	388.5
377.222	384.5
377.448	395.5
377.674	385.5
377.899	378.5
378.125	388.5
378.35	375.5
378.576	386.5
378.802	410.5
379.027	388.5
379.253	398.5
379.478	405.5
379.704	388.5
379.929	378.5
380.155	394.5
380.38	396.5
380.606	388.5
380.831	381.5
381.057	397.5
381.282	384.5
381.507	390.5
381.733	390.5
381.958	398.5
382.184	385.5
382.409	406.5
382.634	396.5
382.86	380.5
383.085	416.5
383.31	392.5
383.535	406.5
383.761	392.5
383.986	390.5
384.211	416.5
384.436	394.5
384.662	410.5
384.887	433.5
385.112	398.5
385.337	390.5
385.562	407.5
385.787	409.5
386.013	435.5
386.238	436.5
386.463	426.5
386.688	426.5
386.913	398.5
387.138	398.5
387.363	421.5
387.588	425.5
387.813	414.5
388.038	381.5
388.263	407.5
388.488	416.5
388.713	393.5
388.938	413.5
389.163	430.5
389.387	430.5
389.612	397.5
389.837	402.5
390.062	420.5
390.287	412.5
390.512	408.5
390.736	390.5
390.961	406.5
391.186	391.5
391.411	411.5
391.636	398.5
391.86	428.5
392.085	430.5
392.31	412.5
392.534	412.5
392.759	414.5
392.984	425.5
393.208	421.5
393.433	417.5
393.658	395.5
393.882	392.5
394.107	410.5
394.331	413.5
394.556	416.5
394.78	412.5
395.005	411.5
395.229	417.5
395.454	402.5
395.678	429.5
395.903	422.5
396.127	468.5
396.352	472.5
396.576	442.5
396.801	432.5
397.025	412.5
397.249	432.5
397.474	444.5
397.698	441.5
397.922	468.5
398.147	462.5
398.371	478.5
398.595	459.5
398.82	423.5
399.044	450.5
399.268	476.5
399.492	501.5
399.717	516.5
399.941	550.5
400.165	550.5
400.389	585.5
400.613	524.5
400.837	490.5
401.062	495.5
401.286	482.5
401.51	452.5
401.734	476.5
401.958	462.5
402.182	450.5
402.406	471.5
402.63	484.5
402.854	477.5
403.078	482.5
403.302	481.5
403.526	480.5
403.75	486.5
403.974	491.5
404.198	501.5
404.422	503.5
404.645	498.5
404.869	502.5
405.093	566.5
405.317	599.5
405.541	644.5
405.765	579.5
405.988	541.5
406.212	514.5
406.436	548.5
406.66	574.5
406.883	546.5
407.107	556.5
407.331	604.5
407.555	641.5
407.778	641.5
408.002	585.5
408.226	555.5
408.449	534.5
408.673	533.5
408.896	553.5
409.12	585.5
409.344	570.5
409.567	523.5
409.791	490.5
410.014	481.5
410.238	495.5
410.461	493.5
410.685	484.5
410.908	514.5
411.132	548.5
411.355	576.5
411.578	544.5
411.802	488.5
412.025	492.5
412.249	510.5
412.472	548.5
412.695	615.5
412.919	592.5
413.142	543.5
413.365	513.5
413.589	485.5
413.812	472.5
414.035	478.5
414.258	457.5
414.482	451.5
414.705	442.5
414.928	468.5
415.151	449.5
415.374	474.5
415.597	424.5
415.821	461.5
416.044	450.5
416.267	470.5
416.49	444.5
416.713	446.5
416.936	457.5
417.159	436.5
417.382	455.5
417.605	477.5
417.828	506.5
418.051	496.5
418.274	472.5
418.497	465.5
418.72	446.5
418.943	472.5
419.166	459.5
419.389	496.5
419.611	474.5
419.834	496.5
420.057	491.5
420.28	519.5
420.503	507.5
420.726	516.5
420.948	500.5
421.171	568.5
421.394	570.5
421.617	483.5
421.839	493.5
422.062	504.5
422.285	516.5
422.507	580.5
422.73	632.5
422.953	596.5
423.175	537.5
423.398	524.5
423.621	504.5
423.843	534.5
424.066	550.5
424.288	526.5
424.511	536.5
424.733	569.5
424.956	685.5
425.178	644.5
425.401	648.5
425.623	688.5
425.846	582.5
426.068	550.5
426.291	538.5
426.513	522.5
426.735	567.5
426.958	594.5
427.18	676.5
427.402	812.5
427.625	869.5
427.847	783.5
428.069	693.5
428.292	595.5
428.514	548.5
428.736	526.5
428.958	510.5
429.181	477.5
429.403	466.5
429.625	494.5
429.847	540.5
430.069	613.5
430.292	590.5
430.514	499.5
430.736	492.5
430.958	472.5
431.18	476.5
431.402	478.5
431.624	437.5
431.846	441.5
432.068	452.5
432.29	454.5
432.512	442.5
432.734	469.5
432.956	475.5
433.178	492.5
433.4	463.5
433.622	473.5
433.844	468.5
434.066	444.5
434.287	443.5
434.509	444.5
434.731	457.5
434.953	467.5
435.175	498.5
435.397	539.5
435.618	527.5
435.84	568.5
436.062	672.5
436.284	743.5
436.505	618.5
436.727	547.5
436.949	509.5
437.17	493.5
437.392	479.5
437.614	501.5
437.835	559.5
438.057	652.5
438.278	738.5
438.5	712.5
438.721	810.5
438.943	773.5
439.165	601.5
439.386	574.5
439.608	548.5
439.829	570.5
440.05	574.5
440.272	634.5
440.493	581.5
440.715	515.5
440.936	508.5
441.158	491.5
441.379	505.5
441.6	508.5
441.822	523.5
442.043	566.5
442.264	660.5
442.486	684.5
442.707	599.5
442.928	559.5
443.149	543.5
443.371	583.5
443.592	636.5
443.813	706.5
444.034	770.5
444.255	602.5
444.476	552.5
444.698	539.5
444.919	521.5
445.14	624.5
445.361	621.5
445.582	598.5
445.803	638.5
446.024	760.5
446.245	757.5
446.466	685.5
446.687	589.5
446.908	542.5
447.129	507.5
447.35	492.5
447.571	485.5
447.792	487.5
448.013	515.5
448.234	516.5
448.455	555.5
448.675	684.5
448.896	795.5
449.117	660.5
449.338	644.5
449.559	723.5
449.779	830.5
450	662.5
450.221	558.5
450.442	515.5
450.662	491.5
450.883	484.5
451.104	520.5
451.324	512.5
451.545	476.5
451.766	453.5
451.986	458.5
452.207	425.5
452.428	435.5
452.648	432.5
452.869	420.5
453.089	471.5
453.31	441.5
453.53	454.5
453.751	453.5
453.971	434.5
454.192	470.5
454.412	449.5
454.633	450.5
454.853	436.5
455.073	419.5
455.294	461.5
455.514	534.5
455.734	532.5
455.955	451.5
456.175	416.5
456.395	418.5
456.616	430.5
456.836	416.5
457.056	397.5
457.276	390.5
457.497	422.5
457.717	412.5
457.937	392.5
458.157	418.5
458.377	446.5
458.598	426.5
458.818	497.5
459.038	614.5
459.258	613.5
459.478	514.5
459.698	470.5
459.918	459.5
460.138	446.5
460.358	434.5
460.578	440.5
460.798	454.5
461.018	448.5
461.238	451.5
461.458	443.5
461.678	448.5
461.898	440.5
462.118	454.5
462.338	460.5
462.558	455.5
462.777	462.5
462.997	472.5
463.217	467.5
463.437	487.5
463.657	455.5
463.876	458.5
464.096	473.5
464.316	452.5
464.536	469.5
464.755	474.5
464.975	486.5
465.195	532.5
465.414	604.5
465.634	540.5
465.854	485.5
466.073	460.5
466.293	462.5
466.512	452.5
466.732	444.5
466.951	465.5
467.171	437.5
467.391	435.5
467.61	428.5
467.829	448.5
468.049	465.5
468.268	466.5
468.488	446.5
468.707	437.5
468.927	444.5
469.146	421.5
469.365	425.5
469.585	422.5
469.804	440.5
470.023	446.5
470.243	453.5
470.462	444.5
470.681	474.5
470.901	481.5
471.12	462.5
471.339	453.5
471.558	451.5
471.777	465.5
471.997	443.5
472.216	466.5
472.435	538.5
472.654	507.5
472.873	442.5
473.092	465.5
473.311	446.5
473.53	446.5
473.749	469.5
473.968	480.5
474.187	609.5
474.406	650.5
474.625	524.5
474.844	493.5
475.063	462.5
475.282	469.5
475.501	455.5
475.72	477.5
475.939	461.5
476.158	454.5
476.377	458.5
476.596	461.5
476.814	461.5
477.033	465.5
477.252	465.5
477.471	470.5
477.69	478.5
477.908	469.5
478.127	491.5
478.346	466.5
478.564	484.5
478.783	496.5
479.002	514.5
479.22	505.5
479.439	514.5
479.658	529.5
479.876	539.5
480.095	544.5
480.313	574.5
480.532	553.5
480.751	538.5
480.969	567.5
481.188	690.5
481.406	758.5
481.624	634.5
481.843	560.5
482.061	560.5
482.28	562.5
482.498	548.5
482.717	523.5
482.935	553.5
483.153	565.5
483.372	548.5
483.59	522.5
483.808	548.5
484.027	531.5
484.245	546.5
484.463	525.5
484.681	509.5
484.9	522.5
485.118	534.5
485.336	539.5
485.554	522.5
485.772	542.5
485.99	541.5
486.209	556.5
486.427	561.5
486.645	553.5
486.863	579.5
487.081	599.5
487.299	564.5
487.517	534.5
487.735	564.5
487.953	548.5
488.171	571.5
488.389	596.5
488.607	575.5
488.825	580.5
489.043	587.5
489.261	586.5
489.479	592.5
489.696	570.5
489.914	584.5
490.132	617.5
490.35	591.5
490.568	596.5
490.786	620.5
491.003	620.5
491.221	625.5
491.439	644.5
491.657	658.5
491.874	675.5
492.092	668.5
492.31	657.5
492.527	688.5
492.745	690.5
492.963	683.5
493.18	673.5
493.398	682.5
493.615	700.5
493.833	689.5
494.05	707.5
494.268	694.5
494.485	664.5
494.703	664.5
494.92	670.5
495.138	684.5
495.355	665.5
495.573	714.5
495.79	694.5
496.008	700.5
496.225	690.5
496.442	674.5
496.66	706.5
496.877	696.5
497.094	686.5
497.312	691.5
497.529	706.5
497.746	699.5
497.963	702.5
498.181	711.5
498.398	725.5
498.615	728.5
498.832	736.5
499.049	737.5
499.267	742.5
499.484	765.5
499.701	797.5
499.918	813.5
500.135	836.5
500.352	880.5
500.569	874.5
500.786	883.5
501.003	865.5
501.22	845.5
501.437	819.5
501.654	841.5
501.871	816.5
502.088	801.5
502.305	783.5
502.522	742.5
502.739	717.5
502.956	715.5
503.172	707.5
503.389	701.5
503.606	692.5
503.823	685.5
504.04	677.5
504.256	682.5
504.473	663.5
504.69	705.5
504.907	668.5
505.123	650.5
505.34	688.5
505.557	646.5
505.773	644.5
505.99	640.5
506.207	665.5
506.423	664.5
506.64	632.5
506.856	642.5
507.073	638.5
507.289	612.5
507.506	627.5
507.722	629.5
507.939	660.5
508.155	635.5
508.372	609.5
508.588	596.5
508.805	612.5
509.021	616.5
509.238	629.5
509.454	631.5
509.67	650.5
509.887	648.5
510.103	617.5
510.319	624.5
510.536	757.5
510.752	1270.5
510.968	1059.5
511.184	666.5
511.401	613.5
511.617	596.5
511.833	594.5
512.049	613.5
512.265	603.5
512.481	598.5
512.698	590.5
512.914	599.5
513.13	600.5
513.346	582.5
513.562	626.5
513.778	584.5
513.994	588.5
514.21	609.5
514.426	638.5
514.642	696.5
514.858	725.5
515.074	760.5
515.29	920.5
515.506	1408.5
515.721	1134.5
515.937	746.5
516.153	690.5
516.369	642.5
516.585	602.5
516.801	602.5
517.016	605.5
517.232	604.5
517.448	600.5
517.664	605.5
517.879	597.5
518.095	572.5
518.311	590.5
518.527	604.5
518.742	572.5
518.958	557.5
519.173	590.5
519.389	592.5
519.605	589.5
519.82	582.5
