Data from 1989.PennyLincolnUp.Lamp.En5.5.200Scan.071819.P2_HRD10591_17-24-55-973.txt Node
Date: Thu Jul 18 17:24:55 EDT 2019
User: cochatt
Spectrometer: HR+D1059
Trigger mode: 1
Integration Time (sec): 1.000000E-1
Scans to average: 1
Electric dark correction enabled: true
Nonlinearity correction enabled: false
Boxcar width: 0
XAxis mode: Wavelengths
Number of Pixels in Spectrum: 2048
>>>>>Begin Spectral Data<<<<<
223.165	-7.12
223.4	-7.12
223.635	-7.12
223.869	-17.12
224.104	-16.12
224.338	-14.12
224.573	-24.12
224.808	-13.12
225.042	-3.12
225.277	-4.12
225.511	-1.12
225.746	19.88
225.98	0.88
226.215	-1.12
226.449	6.88
226.683	18.88
226.918	22.88
227.152	31.88
227.387	23.88
227.621	26.88
227.856	34.88
228.09	33.88
228.324	41.88
228.559	53.88
228.793	75.88
229.027	99.88
229.262	98.88
229.496	115.88
229.73	133.88
229.964	138.88
230.199	132.88
230.433	111.88
230.667	113.88
230.901	118.88
231.136	118.88
231.37	107.88
231.604	121.88
231.838	116.88
232.072	115.88
232.306	107.88
232.541	133.88
232.775	107.88
233.009	108.88
233.243	110.88
233.477	120.88
233.711	110.88
233.945	114.88
234.179	114.88
234.413	129.88
234.647	122.88
234.881	122.88
235.115	116.88
235.349	111.88
235.583	113.88
235.817	126.88
236.051	128.88
236.285	127.88
236.519	127.88
236.753	135.88
236.987	147.88
237.221	187.88
237.455	257.88
237.689	193.88
237.922	151.88
238.156	138.88
238.39	109.88
238.624	121.88
238.858	135.88
239.091	140.88
239.325	125.88
239.559	117.88
239.793	122.88
240.027	134.88
240.26	137.88
240.494	157.88
240.728	144.88
240.961	160.88
241.195	147.88
241.429	143.88
241.662	136.88
241.896	145.88
242.13	149.88
242.363	144.88
242.597	141.88
242.83	134.88
243.064	151.88
243.298	136.88
243.531	139.88
243.765	146.88
243.998	150.88
244.232	137.88
244.465	162.88
244.699	136.88
244.932	155.88
245.166	132.88
245.399	150.88
245.633	158.88
245.866	136.88
246.099	147.88
246.333	158.88
246.566	171.88
246.8	144.88
247.033	170.88
247.266	179.88
247.5	168.88
247.733	190.88
247.966	186.88
248.2	185.88
248.433	184.88
248.666	187.88
248.899	187.88
249.133	211.88
249.366	208.88
249.599	202.88
249.832	199.88
250.066	202.88
250.299	199.88
250.532	186.88
250.765	210.88
250.998	238.88
251.231	239.88
251.465	229.88
251.698	210.88
251.931	203.88
252.164	219.88
252.397	214.88
252.63	217.88
252.863	248.88
253.096	233.88
253.329	245.88
253.562	261.88
253.795	245.88
254.028	234.88
254.261	232.88
254.494	242.88
254.727	260.88
254.96	304.88
255.193	292.88
255.426	272.88
255.659	247.88
255.892	258.88
256.124	243.88
256.357	247.88
256.59	225.88
256.823	222.88
257.056	233.88
257.289	232.88
257.521	220.88
257.754	216.88
257.987	220.88
258.22	235.88
258.452	226.88
258.685	230.88
258.918	220.88
259.151	212.88
259.383	230.88
259.616	226.88
259.849	241.88
260.081	258.88
260.314	275.88
260.547	269.88
260.779	261.88
261.012	255.88
261.244	254.88
261.477	246.88
261.71	242.88
261.942	255.88
262.175	247.88
262.407	245.88
262.64	210.88
262.872	233.88
263.105	216.88
263.337	238.88
263.57	220.88
263.802	231.88
264.035	229.88
264.267	240.88
264.499	227.88
264.732	222.88
264.964	225.88
265.197	223.88
265.429	233.88
265.661	219.88
265.894	230.88
266.126	233.88
266.358	227.88
266.591	218.88
266.823	221.88
267.055	233.88
267.287	238.88
267.52	243.88
267.752	252.88
267.984	252.88
268.216	233.88
268.448	252.88
268.681	256.88
268.913	271.88
269.145	262.88
269.377	308.88
269.609	296.88
269.841	302.88
270.073	298.88
270.306	334.88
270.538	350.88
270.77	339.88
271.002	333.88
271.234	305.88
271.466	299.88
271.698	352.88
271.93	341.88
272.162	347.88
272.394	367.88
272.626	354.88
272.858	314.88
273.09	293.88
273.322	289.88
273.553	277.88
273.785	294.88
274.017	287.88
274.249	289.88
274.481	303.88
274.713	283.88
274.945	268.88
275.176	292.88
275.408	298.88
275.64	289.88
275.872	288.88
276.104	273.88
276.335	280.88
276.567	293.88
276.799	311.88
277.031	346.88
277.262	346.88
277.494	336.88
277.726	330.88
277.957	319.88
278.189	304.88
278.421	293.88
278.652	260.88
278.884	288.88
279.115	300.88
279.347	272.88
279.579	270.88
279.81	263.88
280.042	301.88
280.273	306.88
280.505	285.88
280.736	279.88
280.968	282.88
281.199	268.88
281.431	269.88
281.662	289.88
281.894	292.88
282.125	296.88
282.356	302.88
282.588	334.88
282.819	319.88
283.051	284.88
283.282	286.88
283.513	297.88
283.745	295.88
283.976	290.88
284.207	299.88
284.439	278.88
284.67	282.88
284.901	289.88
285.132	289.88
285.364	296.88
285.595	292.88
285.826	297.88
286.057	289.88
286.288	315.88
286.52	311.88
286.751	310.88
286.982	301.88
287.213	309.88
287.444	291.88
287.675	314.88
287.906	302.88
288.138	312.88
288.369	325.88
288.6	316.88
288.831	310.88
289.062	316.88
289.293	312.88
289.524	315.88
289.755	306.88
289.986	306.88
290.217	306.88
290.448	297.88
290.679	307.88
290.91	306.88
291.141	303.88
291.371	329.88
291.602	307.88
291.833	299.88
292.064	306.88
292.295	308.88
292.526	300.88
292.757	298.88
292.987	296.88
293.218	287.88
293.449	293.88
293.68	306.88
293.91	302.88
294.141	286.88
294.372	289.88
294.603	311.88
294.833	308.88
295.064	298.88
295.295	310.88
295.525	307.88
295.756	316.88
295.987	324.88
296.217	346.88
296.448	347.88
296.679	315.88
296.909	307.88
297.14	339.88
297.37	319.88
297.601	305.88
297.831	308.88
298.062	299.88
298.292	321.88
298.523	314.88
298.753	304.88
298.984	321.88
299.214	306.88
299.445	337.88
299.675	323.88
299.905	329.88
300.136	331.88
300.366	321.88
300.597	320.88
300.827	340.88
301.057	330.88
301.288	355.88
301.518	345.88
301.748	351.88
301.979	357.88
302.209	347.88
302.439	329.88
302.669	307.88
302.9	322.88
303.13	311.88
303.36	335.88
303.59	347.88
303.82	355.88
304.051	348.88
304.281	332.88
304.511	313.88
304.741	340.88
304.971	334.88
305.201	339.88
305.431	341.88
305.661	363.88
305.891	341.88
306.121	357.88
306.352	345.88
306.582	370.88
306.812	337.88
307.042	337.88
307.272	331.88
307.502	343.88
307.731	343.88
307.961	355.88
308.191	358.88
308.421	353.88
308.651	363.88
308.881	343.88
309.111	355.88
309.341	364.88
309.571	369.88
309.8	390.88
310.03	379.88
310.26	386.88
310.49	381.88
310.72	408.88
310.949	424.88
311.179	423.88
311.409	404.88
311.639	389.88
311.868	394.88
312.098	402.88
312.328	414.88
312.557	437.88
312.787	423.88
313.017	445.88
313.246	399.88
313.476	378.88
313.706	418.88
313.935	400.88
314.165	414.88
314.394	441.88
314.624	404.88
314.853	418.88
315.083	404.88
315.312	410.88
315.542	389.88
315.771	389.88
316.001	392.88
316.23	408.88
316.46	385.88
316.689	384.88
316.919	412.88
317.148	421.88
317.377	408.88
317.607	415.88
317.836	417.88
318.065	412.88
318.295	391.88
318.524	407.88
318.753	407.88
318.983	405.88
319.212	405.88
319.441	415.88
319.67	394.88
319.9	410.88
320.129	416.88
320.358	397.88
320.587	403.88
320.816	422.88
321.046	408.88
321.275	430.88
321.504	408.88
321.733	445.88
321.962	467.88
322.191	460.88
322.42	456.88
322.649	481.88
322.878	495.88
323.108	500.88
323.337	510.88
323.566	544.88
323.795	574.88
324.024	640.88
324.253	817.88
324.482	1102.88
324.71	1730.88
324.939	2498.88
325.168	2169.88
325.397	1083.88
325.626	770.88
325.855	618.88
326.084	559.88
326.313	553.88
326.542	560.88
326.77	632.88
326.999	695.88
327.228	985.88
327.457	1509.88
327.686	1852.88
327.914	1278.88
328.143	806.88
328.372	682.88
328.6	640.88
328.829	618.88
329.058	634.88
329.287	625.88
329.515	604.88
329.744	544.88
329.972	537.88
330.201	560.88
330.43	582.88
330.658	616.88
330.887	642.88
331.115	640.88
331.344	537.88
331.572	522.88
331.801	515.88
332.03	527.88
332.258	491.88
332.486	463.88
332.715	475.88
332.943	468.88
333.172	472.88
333.4	470.88
333.629	472.88
333.857	489.88
334.085	473.88
334.314	496.88
334.542	523.88
334.771	514.88
334.999	495.88
335.227	451.88
335.455	475.88
335.684	455.88
335.912	458.88
336.14	457.88
336.369	465.88
336.597	458.88
336.825	476.88
337.053	460.88
337.281	446.88
337.51	442.88
337.738	445.88
337.966	447.88
338.194	479.88
338.422	460.88
338.65	470.88
338.878	447.88
339.106	447.88
339.334	450.88
339.562	454.88
339.79	417.88
340.018	448.88
340.246	427.88
340.474	457.88
340.702	432.88
340.93	444.88
341.158	444.88
341.386	437.88
341.614	430.88
341.842	438.88
342.07	444.88
342.298	422.88
342.526	439.88
342.754	425.88
342.981	401.88
343.209	418.88
343.437	415.88
343.665	425.88
343.893	446.88
344.12	440.88
344.348	453.88
344.576	463.88
344.804	435.88
345.031	460.88
345.259	472.88
345.487	463.88
345.714	471.88
345.942	450.88
346.17	439.88
346.397	422.88
346.625	451.88
346.853	426.88
347.08	408.88
347.308	448.88
347.535	446.88
347.763	437.88
347.99	438.88
348.218	446.88
348.445	457.88
348.673	444.88
348.9	427.88
349.128	414.88
349.355	396.88
349.583	401.88
349.81	421.88
350.037	396.88
350.265	424.88
350.492	408.88
350.72	400.88
350.947	406.88
351.174	454.88
351.402	451.88
351.629	424.88
351.856	439.88
352.083	433.88
352.311	438.88
352.538	432.88
352.765	442.88
352.992	436.88
353.22	419.88
353.447	439.88
353.674	417.88
353.901	400.88
354.128	416.88
354.355	419.88
354.583	410.88
354.81	384.88
355.037	387.88
355.264	396.88
355.491	389.88
355.718	390.88
355.945	395.88
356.172	395.88
356.399	374.88
356.626	398.88
356.853	380.88
357.08	385.88
357.307	386.88
357.534	391.88
357.761	389.88
357.988	415.88
358.215	384.88
358.441	391.88
358.668	379.88
358.895	392.88
359.122	408.88
359.349	399.88
359.576	407.88
359.802	441.88
360.029	461.88
360.256	500.88
360.483	460.88
360.709	428.88
360.936	437.88
361.163	436.88
361.39	411.88
361.616	422.88
361.843	422.88
362.07	408.88
362.296	430.88
362.523	406.88
362.749	412.88
362.976	408.88
363.203	402.88
363.429	399.88
363.656	402.88
363.882	395.88
364.109	399.88
364.335	411.88
364.562	393.88
364.788	390.88
365.015	411.88
365.241	399.88
365.468	409.88
365.694	410.88
365.92	396.88
366.147	401.88
366.373	412.88
366.599	405.88
366.826	388.88
367.052	380.88
367.278	392.88
367.505	399.88
367.731	385.88
367.957	395.88
368.184	403.88
368.41	411.88
368.636	392.88
368.862	408.88
369.089	400.88
369.315	400.88
369.541	406.88
369.767	400.88
369.993	389.88
370.219	395.88
370.445	393.88
370.672	409.88
370.898	374.88
371.124	386.88
371.35	404.88
371.576	383.88
371.802	392.88
372.028	395.88
372.254	373.88
372.48	386.88
372.706	384.88
372.932	378.88
373.158	388.88
373.384	359.88
373.61	392.88
373.835	396.88
374.061	401.88
374.287	421.88
374.513	410.88
374.739	403.88
374.965	383.88
375.191	386.88
375.416	402.88
375.642	399.88
375.868	400.88
376.094	398.88
376.319	377.88
376.545	380.88
376.771	382.88
376.997	368.88
377.222	378.88
377.448	371.88
377.674	374.88
377.899	360.88
378.125	394.88
378.35	377.88
378.576	373.88
378.802	380.88
379.027	362.88
379.253	362.88
379.478	355.88
379.704	383.88
379.929	383.88
380.155	379.88
380.38	404.88
380.606	391.88
380.831	386.88
381.057	394.88
381.282	380.88
381.507	369.88
381.733	352.88
381.958	377.88
382.184	362.88
382.409	378.88
382.634	393.88
382.86	378.88
383.085	393.88
383.31	399.88
383.535	383.88
383.761	395.88
383.986	394.88
384.211	379.88
384.436	392.88
384.662	375.88
384.887	391.88
385.112	401.88
385.337	397.88
385.562	397.88
385.787	423.88
386.013	406.88
386.238	416.88
386.463	422.88
386.688	405.88
386.913	403.88
387.138	422.88
387.363	406.88
387.588	397.88
387.813	414.88
388.038	391.88
388.263	389.88
388.488	397.88
388.713	396.88
388.938	412.88
389.163	413.88
389.387	400.88
389.612	391.88
389.837	405.88
390.062	403.88
390.287	409.88
390.512	392.88
390.736	404.88
390.961	404.88
391.186	409.88
391.411	415.88
391.636	409.88
391.86	412.88
392.085	394.88
392.31	421.88
392.534	403.88
392.759	418.88
392.984	417.88
393.208	395.88
393.433	416.88
393.658	408.88
393.882	381.88
394.107	402.88
394.331	403.88
394.556	407.88
394.78	406.88
395.005	401.88
395.229	406.88
395.454	388.88
395.678	424.88
395.903	429.88
396.127	455.88
396.352	441.88
396.576	417.88
396.801	414.88
397.025	419.88
397.249	422.88
397.474	407.88
397.698	396.88
397.922	415.88
398.147	455.88
398.371	465.88
398.595	433.88
398.82	426.88
399.044	459.88
399.268	458.88
399.492	488.88
399.717	509.88
399.941	559.88
400.165	554.88
400.389	553.88
400.613	510.88
400.837	486.88
401.062	475.88
401.286	470.88
401.51	483.88
401.734	449.88
401.958	445.88
402.182	481.88
402.406	460.88
402.63	486.88
402.854	470.88
403.078	458.88
403.302	455.88
403.526	487.88
403.75	492.88
403.974	463.88
404.198	473.88
404.422	461.88
404.645	472.88
404.869	497.88
405.093	484.88
405.317	554.88
405.541	575.88
405.765	519.88
405.988	526.88
406.212	504.88
406.436	530.88
406.66	542.88
406.883	528.88
407.107	555.88
407.331	590.88
407.555	634.88
407.778	630.88
408.002	577.88
408.226	535.88
408.449	518.88
408.673	526.88
408.896	549.88
409.12	595.88
409.344	565.88
409.567	530.88
409.791	487.88
410.014	475.88
410.238	454.88
410.461	481.88
410.685	467.88
410.908	487.88
411.132	522.88
411.355	562.88
411.578	545.88
411.802	504.88
412.025	483.88
412.249	474.88
412.472	488.88
412.695	531.88
412.919	496.88
413.142	477.88
413.365	444.88
413.589	466.88
413.812	459.88
414.035	466.88
414.258	449.88
414.482	446.88
414.705	425.88
414.928	455.88
415.151	440.88
415.374	457.88
415.597	425.88
415.821	442.88
416.044	447.88
416.267	439.88
416.49	423.88
416.713	443.88
416.936	444.88
417.159	420.88
417.382	465.88
417.605	461.88
417.828	463.88
418.051	496.88
418.274	441.88
418.497	446.88
418.72	458.88
418.943	459.88
419.166	466.88
419.389	466.88
419.611	488.88
419.834	456.88
420.057	485.88
420.28	497.88
420.503	476.88
420.726	476.88
420.948	468.88
421.171	515.88
421.394	534.88
421.617	491.88
421.839	489.88
422.062	472.88
422.285	486.88
422.507	529.88
422.73	584.88
422.953	596.88
423.175	510.88
423.398	486.88
423.621	508.88
423.843	516.88
424.066	517.88
424.288	505.88
424.511	537.88
424.733	568.88
424.956	640.88
425.178	628.88
425.401	642.88
425.623	654.88
425.846	567.88
426.068	524.88
426.291	509.88
426.513	517.88
426.735	530.88
426.958	562.88
427.18	665.88
427.402	768.88
427.625	870.88
427.847	754.88
428.069	637.88
428.292	583.88
428.514	515.88
428.736	506.88
428.958	510.88
429.181	458.88
429.403	474.88
429.625	483.88
429.847	529.88
430.069	600.88
430.292	575.88
430.514	512.88
430.736	497.88
430.958	479.88
431.18	452.88
431.402	454.88
431.624	448.88
431.846	449.88
432.068	435.88
432.29	419.88
432.512	446.88
432.734	459.88
432.956	449.88
433.178	443.88
433.4	467.88
433.622	446.88
433.844	451.88
434.066	451.88
434.287	438.88
434.509	463.88
434.731	453.88
434.953	458.88
435.175	476.88
435.397	506.88
435.618	527.88
435.84	562.88
436.062	648.88
436.284	738.88
436.505	599.88
436.727	532.88
436.949	495.88
437.17	496.88
437.392	481.88
437.614	489.88
437.835	551.88
438.057	620.88
438.278	734.88
438.5	743.88
438.721	790.88
438.943	755.88
439.165	596.88
439.386	522.88
439.608	537.88
439.829	530.88
440.05	565.88
440.272	598.88
440.493	555.88
440.715	556.88
440.936	511.88
441.158	440.88
441.379	478.88
441.6	496.88
441.822	533.88
442.043	547.88
442.264	626.88
442.486	695.88
442.707	591.88
442.928	524.88
443.149	531.88
443.371	569.88
443.592	590.88
443.813	692.88
444.034	738.88
444.255	601.88
444.476	537.88
444.698	497.88
444.919	502.88
445.14	607.88
445.361	570.88
445.582	560.88
445.803	623.88
446.024	744.88
446.245	743.88
446.466	667.88
446.687	572.88
446.908	526.88
447.129	492.88
447.35	483.88
447.571	504.88
447.792	463.88
448.013	502.88
448.234	501.88
448.455	547.88
448.675	666.88
448.896	750.88
449.117	640.88
449.338	644.88
449.559	720.88
449.779	811.88
450	666.88
450.221	550.88
450.442	524.88
450.662	470.88
450.883	488.88
451.104	491.88
451.324	477.88
451.545	471.88
451.766	457.88
451.986	435.88
452.207	422.88
452.428	417.88
452.648	424.88
452.869	442.88
453.089	449.88
453.31	470.88
453.53	440.88
453.751	446.88
453.971	448.88
454.192	424.88
454.412	449.88
454.633	434.88
454.853	440.88
455.073	418.88
455.294	456.88
455.514	523.88
455.734	510.88
455.955	443.88
456.175	404.88
456.395	386.88
456.616	400.88
456.836	387.88
457.056	389.88
457.276	389.88
457.497	396.88
457.717	407.88
457.937	386.88
458.157	408.88
458.377	420.88
458.598	457.88
458.818	502.88
459.038	592.88
459.258	600.88
459.478	515.88
459.698	455.88
459.918	442.88
460.138	442.88
460.358	442.88
460.578	437.88
460.798	430.88
461.018	446.88
461.238	441.88
461.458	432.88
461.678	434.88
461.898	414.88
462.118	420.88
462.338	480.88
462.558	452.88
462.777	450.88
462.997	454.88
463.217	448.88
463.437	470.88
463.657	461.88
463.876	454.88
464.096	444.88
464.316	478.88
464.536	473.88
464.755	473.88
464.975	487.88
465.195	526.88
465.414	600.88
465.634	532.88
465.854	484.88
466.073	461.88
466.293	443.88
466.512	424.88
466.732	438.88
466.951	450.88
467.171	435.88
467.391	443.88
467.61	448.88
467.829	449.88
468.049	434.88
468.268	432.88
468.488	433.88
468.707	426.88
468.927	425.88
469.146	409.88
469.365	406.88
469.585	427.88
469.804	428.88
470.023	439.88
470.243	430.88
470.462	454.88
470.681	452.88
470.901	454.88
471.12	451.88
471.339	429.88
471.558	420.88
471.777	437.88
471.997	424.88
472.216	445.88
472.435	432.88
472.654	438.88
472.873	450.88
473.092	417.88
473.311	428.88
473.53	422.88
473.749	444.88
473.968	478.88
474.187	571.88
474.406	615.88
474.625	512.88
474.844	469.88
475.063	430.88
475.282	450.88
475.501	427.88
475.72	440.88
475.939	448.88
476.158	459.88
476.377	425.88
476.596	433.88
476.814	456.88
477.033	459.88
477.252	464.88
477.471	460.88
477.69	458.88
477.908	468.88
478.127	471.88
478.346	467.88
478.564	458.88
478.783	474.88
479.002	474.88
479.22	488.88
479.439	509.88
479.658	525.88
479.876	531.88
480.095	521.88
480.313	554.88
480.532	550.88
480.751	518.88
480.969	531.88
481.188	584.88
481.406	582.88
481.624	548.88
481.843	534.88
482.061	501.88
482.28	516.88
482.498	506.88
482.717	497.88
482.935	499.88
483.153	504.88
483.372	506.88
483.59	508.88
483.808	507.88
484.027	494.88
484.245	506.88
484.463	491.88
484.681	524.88
484.9	507.88
485.118	500.88
485.336	507.88
485.554	526.88
485.772	542.88
485.99	515.88
486.209	513.88
486.427	544.88
486.645	561.88
486.863	570.88
487.081	566.88
487.299	540.88
487.517	554.88
487.735	541.88
487.953	552.88
488.171	543.88
488.389	522.88
488.607	558.88
488.825	552.88
489.043	562.88
489.261	562.88
489.479	572.88
489.696	562.88
489.914	576.88
490.132	568.88
490.35	567.88
490.568	588.88
490.786	573.88
491.003	570.88
491.221	604.88
491.439	601.88
491.657	611.88
491.874	606.88
492.092	642.88
492.31	610.88
492.527	632.88
492.745	636.88
492.963	649.88
493.18	636.88
493.398	649.88
493.615	643.88
493.833	660.88
494.05	644.88
494.268	645.88
494.485	636.88
494.703	658.88
494.92	665.88
495.138	648.88
495.355	670.88
495.573	652.88
495.79	658.88
496.008	664.88
496.225	694.88
496.442	654.88
496.66	648.88
496.877	644.88
497.094	672.88
497.312	653.88
497.529	671.88
497.746	679.88
497.963	666.88
498.181	696.88
498.398	716.88
498.615	744.88
498.832	711.88
499.049	716.88
499.267	726.88
499.484	733.88
499.701	784.88
499.918	775.88
500.135	820.88
500.352	804.88
500.569	860.88
500.786	834.88
501.003	858.88
501.22	818.88
501.437	796.88
501.654	811.88
501.871	780.88
