Data from 1989.PennyLincolnUp.Lamp.En5.5.200Scan.071819.P2_HRD10591_17-24-03-973.txt Node
Date: Thu Jul 18 17:24:03 EDT 2019
User: cochatt
Spectrometer: HR+D1059
Trigger mode: 1
Integration Time (sec): 1.000000E-1
Scans to average: 1
Electric dark correction enabled: true
Nonlinearity correction enabled: false
Boxcar width: 0
XAxis mode: Wavelengths
Number of Pixels in Spectrum: 2048
>>>>>Begin Spectral Data<<<<<
223.165	-17.56
223.4	-17.56
223.635	-17.56
223.869	0.44
224.104	-9.56
224.338	-21.56
224.573	-15.56
224.808	-26.56
225.042	4.44
225.277	-9.56
225.511	-6.56
225.746	12.44
225.98	0.44
226.215	8.44
226.449	20.44
226.683	-4.56
226.918	20.44
227.152	44.44
227.387	40.44
227.621	34.44
227.856	40.44
228.09	45.44
228.324	44.44
228.559	44.44
228.793	61.44
229.027	99.44
229.262	108.44
229.496	116.44
229.73	145.44
229.964	156.44
230.199	124.44
230.433	121.44
230.667	112.44
230.901	116.44
231.136	116.44
231.37	110.44
231.604	101.44
231.838	104.44
232.072	98.44
232.306	121.44
232.541	114.44
232.775	113.44
233.009	127.44
233.243	127.44
233.477	119.44
233.711	117.44
233.945	115.44
234.179	119.44
234.413	118.44
234.647	123.44
234.881	117.44
235.115	127.44
235.349	125.44
235.583	117.44
235.817	120.44
236.051	130.44
236.285	125.44
236.519	126.44
236.753	123.44
236.987	140.44
237.221	183.44
237.455	262.44
237.689	200.44
237.922	153.44
238.156	146.44
238.39	136.44
238.624	130.44
238.858	125.44
239.091	126.44
239.325	107.44
239.559	120.44
239.793	132.44
240.027	139.44
240.26	155.44
240.494	157.44
240.728	164.44
240.961	157.44
241.195	160.44
241.429	144.44
241.662	129.44
241.896	130.44
242.13	149.44
242.363	126.44
242.597	137.44
242.83	140.44
243.064	156.44
243.298	141.44
243.531	151.44
243.765	150.44
243.998	149.44
244.232	131.44
244.465	141.44
244.699	149.44
244.932	171.44
245.166	146.44
245.399	150.44
245.633	138.44
245.866	156.44
246.099	146.44
246.333	158.44
246.566	166.44
246.8	160.44
247.033	162.44
247.266	155.44
247.5	163.44
247.733	173.44
247.966	185.44
248.2	172.44
248.433	189.44
248.666	166.44
248.899	187.44
249.133	215.44
249.366	201.44
249.599	224.44
249.832	205.44
250.066	184.44
250.299	188.44
250.532	194.44
250.765	213.44
250.998	225.44
251.231	237.44
251.465	219.44
251.698	216.44
251.931	215.44
252.164	217.44
252.397	212.44
252.63	210.44
252.863	203.44
253.096	245.44
253.329	253.44
253.562	255.44
253.795	242.44
254.028	236.44
254.261	240.44
254.494	246.44
254.727	250.44
254.96	304.44
255.193	298.44
255.426	292.44
255.659	257.44
255.892	233.44
256.124	245.44
256.357	207.44
256.59	218.44
256.823	210.44
257.056	221.44
257.289	225.44
257.521	216.44
257.754	235.44
257.987	248.44
258.22	224.44
258.452	237.44
258.685	228.44
258.918	204.44
259.151	255.44
259.383	237.44
259.616	254.44
259.849	266.44
260.081	269.44
260.314	284.44
260.547	293.44
260.779	264.44
261.012	259.44
261.244	258.44
261.477	249.44
261.71	241.44
261.942	247.44
262.175	252.44
262.407	256.44
262.64	251.44
262.872	224.44
263.105	234.44
263.337	241.44
263.57	236.44
263.802	228.44
264.035	229.44
264.267	229.44
264.499	211.44
264.732	242.44
264.964	212.44
265.197	215.44
265.429	235.44
265.661	238.44
265.894	200.44
266.126	236.44
266.358	231.44
266.591	243.44
266.823	242.44
267.055	238.44
267.287	258.44
267.52	240.44
267.752	242.44
267.984	240.44
268.216	259.44
268.448	244.44
268.681	264.44
268.913	249.44
269.145	276.44
269.377	296.44
269.609	305.44
269.841	295.44
270.073	290.44
270.306	307.44
270.538	362.44
270.77	340.44
271.002	328.44
271.234	309.44
271.466	344.44
271.698	333.44
271.93	343.44
272.162	346.44
272.394	346.44
272.626	342.44
272.858	325.44
273.09	308.44
273.322	311.44
273.553	281.44
273.785	283.44
274.017	293.44
274.249	273.44
274.481	281.44
274.713	286.44
274.945	296.44
275.176	276.44
275.408	286.44
275.64	288.44
275.872	304.44
276.104	291.44
276.335	293.44
276.567	299.44
276.799	310.44
277.031	331.44
277.262	326.44
277.494	339.44
277.726	339.44
277.957	307.44
278.189	301.44
278.421	297.44
278.652	281.44
278.884	274.44
279.115	301.44
279.347	286.44
279.579	298.44
279.81	300.44
280.042	286.44
280.273	289.44
280.505	294.44
280.736	296.44
280.968	278.44
281.199	286.44
281.431	308.44
281.662	281.44
281.894	281.44
282.125	293.44
282.356	309.44
282.588	308.44
282.819	321.44
283.051	293.44
283.282	295.44
283.513	298.44
283.745	292.44
283.976	288.44
284.207	286.44
284.439	290.44
284.67	318.44
284.901	306.44
285.132	302.44
285.364	296.44
285.595	295.44
285.826	282.44
286.057	293.44
286.288	294.44
286.52	309.44
286.751	298.44
286.982	289.44
287.213	310.44
287.444	308.44
287.675	308.44
287.906	323.44
288.138	317.44
288.369	320.44
288.6	320.44
288.831	313.44
289.062	309.44
289.293	310.44
289.524	313.44
289.755	282.44
289.986	313.44
290.217	299.44
290.448	300.44
290.679	306.44
290.91	305.44
291.141	313.44
291.371	309.44
291.602	316.44
291.833	292.44
292.064	308.44
292.295	321.44
292.526	313.44
292.757	306.44
292.987	304.44
293.218	314.44
293.449	302.44
293.68	336.44
293.91	290.44
294.141	304.44
294.372	305.44
294.603	314.44
294.833	285.44
295.064	324.44
295.295	301.44
295.525	316.44
295.756	332.44
295.987	326.44
296.217	343.44
296.448	353.44
296.679	319.44
296.909	317.44
297.14	315.44
297.37	318.44
297.601	318.44
297.831	333.44
298.062	309.44
298.292	318.44
298.523	340.44
298.753	324.44
298.984	330.44
299.214	327.44
299.445	333.44
299.675	323.44
299.905	312.44
300.136	301.44
300.366	330.44
300.597	337.44
300.827	329.44
301.057	338.44
301.288	339.44
301.518	338.44
301.748	328.44
301.979	342.44
302.209	368.44
302.439	341.44
302.669	332.44
302.9	336.44
303.13	333.44
303.36	325.44
303.59	345.44
303.82	370.44
304.051	344.44
304.281	338.44
304.511	356.44
304.741	321.44
304.971	337.44
305.201	344.44
305.431	322.44
305.661	342.44
305.891	344.44
306.121	342.44
306.352	355.44
306.582	354.44
306.812	341.44
307.042	358.44
307.272	340.44
307.502	370.44
307.731	351.44
307.961	359.44
308.191	334.44
308.421	342.44
308.651	359.44
308.881	371.44
309.111	363.44
309.341	361.44
309.571	377.44
309.8	390.44
310.03	388.44
310.26	380.44
310.49	407.44
310.72	398.44
310.949	413.44
311.179	418.44
311.409	406.44
311.639	404.44
311.868	395.44
312.098	402.44
312.328	402.44
312.557	442.44
312.787	465.44
313.017	438.44
313.246	411.44
313.476	402.44
313.706	394.44
313.935	394.44
314.165	430.44
314.394	424.44
314.624	424.44
314.853	392.44
315.083	408.44
315.312	387.44
315.542	396.44
315.771	397.44
316.001	410.44
316.23	379.44
316.46	390.44
316.689	406.44
316.919	397.44
317.148	399.44
317.377	414.44
317.607	393.44
317.836	411.44
318.065	390.44
318.295	379.44
318.524	378.44
318.753	390.44
318.983	399.44
319.212	381.44
319.441	410.44
319.67	451.44
319.9	412.44
320.129	416.44
320.358	414.44
320.587	412.44
320.816	411.44
321.046	429.44
321.275	424.44
321.504	424.44
321.733	433.44
321.962	418.44
322.191	454.44
322.42	440.44
322.649	463.44
322.878	493.44
323.108	488.44
323.337	504.44
323.566	524.44
323.795	558.44
324.024	652.44
324.253	756.44
324.482	1081.44
324.71	1675.44
324.939	2390.44
325.168	2065.44
325.397	1092.44
325.626	739.44
325.855	596.44
326.084	546.44
326.313	524.44
326.542	563.44
326.77	583.44
326.999	682.44
327.228	973.44
327.457	1432.44
327.686	1801.44
327.914	1204.44
328.143	744.44
328.372	658.44
328.6	634.44
328.829	601.44
329.058	628.44
329.287	616.44
329.515	555.44
329.744	541.44
329.972	536.44
330.201	518.44
330.43	552.44
330.658	573.44
330.887	624.44
331.115	625.44
331.344	566.44
331.572	518.44
331.801	520.44
332.03	516.44
332.258	487.44
332.486	483.44
332.715	466.44
332.943	455.44
333.172	450.44
333.4	466.44
333.629	489.44
333.857	476.44
334.085	479.44
334.314	464.44
334.542	490.44
334.771	473.44
334.999	475.44
335.227	476.44
335.455	462.44
335.684	444.44
335.912	444.44
336.14	440.44
336.369	448.44
336.597	478.44
336.825	496.44
337.053	455.44
337.281	456.44
337.51	454.44
337.738	452.44
337.966	466.44
338.194	458.44
338.422	466.44
338.65	459.44
338.878	440.44
339.106	426.44
339.334	421.44
339.562	428.44
339.79	439.44
340.018	448.44
340.246	459.44
340.474	457.44
340.702	460.44
340.93	409.44
341.158	448.44
341.386	437.44
341.614	444.44
341.842	434.44
342.07	447.44
342.298	455.44
342.526	431.44
342.754	412.44
342.981	436.44
343.209	440.44
343.437	433.44
343.665	437.44
343.893	439.44
344.12	438.44
344.348	457.44
344.576	444.44
344.804	453.44
345.031	454.44
345.259	453.44
345.487	461.44
345.714	459.44
345.942	444.44
346.17	447.44
346.397	435.44
346.625	418.44
346.853	429.44
347.08	439.44
347.308	445.44
347.535	440.44
347.763	444.44
347.99	456.44
348.218	456.44
348.445	449.44
348.673	458.44
348.9	410.44
349.128	424.44
349.355	414.44
349.583	420.44
349.81	414.44
350.037	404.44
350.265	425.44
350.492	428.44
350.72	425.44
350.947	419.44
351.174	450.44
351.402	446.44
351.629	445.44
351.856	439.44
352.083	420.44
352.311	456.44
352.538	445.44
352.765	458.44
352.992	449.44
353.22	406.44
353.447	426.44
353.674	425.44
353.901	406.44
354.128	414.44
354.355	413.44
354.583	405.44
354.81	384.44
355.037	406.44
355.264	384.44
355.491	403.44
355.718	382.44
355.945	390.44
356.172	395.44
356.399	388.44
356.626	382.44
356.853	369.44
357.08	382.44
357.307	366.44
357.534	383.44
357.761	388.44
357.988	389.44
358.215	386.44
358.441	384.44
358.668	376.44
358.895	409.44
359.122	391.44
359.349	406.44
359.576	413.44
359.802	449.44
360.029	497.44
360.256	501.44
360.483	465.44
360.709	444.44
360.936	441.44
361.163	430.44
361.39	430.44
361.616	432.44
361.843	425.44
362.07	409.44
362.296	407.44
362.523	430.44
362.749	420.44
362.976	422.44
363.203	416.44
363.429	413.44
363.656	436.44
363.882	412.44
364.109	396.44
364.335	399.44
364.562	403.44
364.788	396.44
365.015	410.44
365.241	408.44
365.468	397.44
365.694	416.44
365.92	399.44
366.147	389.44
366.373	397.44
366.599	398.44
366.826	396.44
367.052	400.44
367.278	407.44
367.505	392.44
367.731	402.44
367.957	406.44
368.184	402.44
368.41	405.44
368.636	418.44
368.862	416.44
369.089	394.44
369.315	416.44
369.541	368.44
369.767	389.44
369.993	400.44
370.219	382.44
370.445	396.44
370.672	407.44
370.898	373.44
371.124	372.44
371.35	392.44
371.576	383.44
371.802	393.44
372.028	372.44
372.254	394.44
372.48	370.44
372.706	373.44
372.932	394.44
373.158	390.44
373.384	394.44
373.61	392.44
373.835	380.44
374.061	406.44
374.287	399.44
374.513	404.44
374.739	398.44
374.965	383.44
375.191	397.44
375.416	379.44
375.642	393.44
375.868	390.44
376.094	398.44
376.319	391.44
376.545	398.44
376.771	376.44
376.997	389.44
377.222	386.44
377.448	399.44
377.674	393.44
377.899	406.44
378.125	383.44
378.35	376.44
378.576	372.44
378.802	393.44
379.027	390.44
379.253	400.44
379.478	380.44
379.704	379.44
379.929	388.44
380.155	397.44
380.38	389.44
380.606	384.44
380.831	392.44
381.057	397.44
381.282	396.44
381.507	388.44
381.733	407.44
381.958	393.44
382.184	381.44
382.409	391.44
382.634	406.44
382.86	389.44
383.085	400.44
383.31	407.44
383.535	414.44
383.761	391.44
383.986	408.44
384.211	404.44
384.436	404.44
384.662	383.44
384.887	384.44
385.112	393.44
385.337	406.44
385.562	401.44
385.787	413.44
386.013	443.44
386.238	435.44
386.463	421.44
386.688	435.44
386.913	419.44
387.138	398.44
387.363	423.44
387.588	406.44
387.813	419.44
388.038	410.44
388.263	414.44
388.488	414.44
388.713	398.44
388.938	396.44
389.163	420.44
389.387	408.44
389.612	427.44
389.837	412.44
390.062	434.44
390.287	390.44
390.512	387.44
390.736	435.44
390.961	412.44
391.186	412.44
391.411	412.44
391.636	406.44
391.86	419.44
392.085	406.44
392.31	408.44
392.534	427.44
392.759	422.44
392.984	422.44
393.208	413.44
393.433	421.44
393.658	438.44
393.882	392.44
394.107	406.44
394.331	392.44
394.556	408.44
394.78	411.44
395.005	406.44
395.229	421.44
395.454	422.44
395.678	411.44
395.903	418.44
396.127	455.44
396.352	456.44
396.576	439.44
396.801	413.44
397.025	427.44
397.249	412.44
397.474	438.44
397.698	436.44
397.922	449.44
398.147	452.44
398.371	475.44
398.595	441.44
398.82	428.44
399.044	473.44
399.268	462.44
399.492	489.44
399.717	505.44
399.941	560.44
400.165	580.44
400.389	565.44
400.613	508.44
400.837	471.44
401.062	470.44
401.286	464.44
401.51	470.44
401.734	454.44
401.958	465.44
402.182	468.44
402.406	483.44
402.63	490.44
402.854	482.44
403.078	481.44
403.302	477.44
403.526	474.44
403.75	477.44
403.974	463.44
404.198	475.44
404.422	495.44
404.645	475.44
404.869	493.44
405.093	522.44
405.317	522.44
405.541	561.44
405.765	497.44
405.988	491.44
406.212	518.44
406.436	540.44
406.66	557.44
406.883	521.44
407.107	541.44
407.331	589.44
407.555	648.44
407.778	637.44
408.002	587.44
408.226	551.44
408.449	538.44
408.673	544.44
408.896	566.44
409.12	592.44
409.344	568.44
409.567	509.44
409.791	506.44
410.014	475.44
410.238	474.44
410.461	460.44
410.685	484.44
410.908	514.44
411.132	541.44
411.355	587.44
411.578	564.44
411.802	468.44
412.025	483.44
412.249	460.44
412.472	494.44
412.695	481.44
412.919	498.44
413.142	466.44
413.365	454.44
413.589	446.44
413.812	438.44
414.035	452.44
414.258	447.44
414.482	435.44
414.705	421.44
414.928	426.44
415.151	460.44
415.374	455.44
415.597	441.44
415.821	438.44
416.044	450.44
416.267	444.44
416.49	438.44
416.713	445.44
416.936	421.44
417.159	439.44
417.382	445.44
417.605	468.44
417.828	445.44
418.051	502.44
418.274	465.44
418.497	445.44
418.72	433.44
418.943	460.44
419.166	451.44
419.389	480.44
419.611	469.44
419.834	474.44
420.057	455.44
420.28	485.44
420.503	458.44
420.726	451.44
420.948	482.44
421.171	519.44
421.394	555.44
421.617	508.44
421.839	480.44
422.062	488.44
422.285	500.44
422.507	556.44
422.73	619.44
422.953	603.44
423.175	526.44
423.398	530.44
423.621	473.44
423.843	516.44
424.066	517.44
424.288	527.44
424.511	524.44
424.733	580.44
424.956	655.44
425.178	655.44
425.401	637.44
425.623	658.44
425.846	546.44
426.068	533.44
426.291	516.44
426.513	511.44
426.735	522.44
426.958	580.44
427.18	658.44
427.402	796.44
427.625	872.44
427.847	755.44
428.069	638.44
428.292	576.44
428.514	528.44
428.736	498.44
428.958	489.44
429.181	465.44
429.403	499.44
429.625	490.44
429.847	530.44
430.069	595.44
430.292	592.44
430.514	496.44
430.736	480.44
430.958	480.44
431.18	474.44
431.402	469.44
431.624	455.44
431.846	435.44
432.068	435.44
432.29	442.44
432.512	453.44
432.734	463.44
432.956	449.44
433.178	460.44
433.4	469.44
433.622	472.44
433.844	436.44
434.066	425.44
434.287	442.44
434.509	441.44
434.731	458.44
434.953	459.44
435.175	482.44
435.397	506.44
435.618	509.44
435.84	572.44
436.062	640.44
436.284	719.44
436.505	596.44
436.727	540.44
436.949	517.44
437.17	492.44
437.392	484.44
437.614	471.44
437.835	517.44
438.057	656.44
438.278	741.44
438.5	726.44
438.721	798.44
438.943	753.44
439.165	599.44
439.386	538.44
439.608	540.44
439.829	542.44
440.05	547.44
440.272	593.44
440.493	568.44
440.715	498.44
440.936	490.44
441.158	490.44
441.379	471.44
441.6	505.44
441.822	516.44
442.043	574.44
442.264	637.44
442.486	695.44
442.707	573.44
442.928	534.44
443.149	540.44
443.371	552.44
443.592	606.44
443.813	699.44
444.034	755.44
444.255	621.44
444.476	566.44
444.698	532.44
444.919	514.44
445.14	592.44
445.361	564.44
445.582	564.44
445.803	621.44
446.024	735.44
446.245	757.44
446.466	690.44
446.687	579.44
446.908	533.44
447.129	504.44
447.35	489.44
447.571	506.44
447.792	493.44
448.013	476.44
448.234	505.44
448.455	556.44
448.675	685.44
448.896	781.44
449.117	664.44
449.338	635.44
449.559	711.44
449.779	821.44
450	650.44
450.221	546.44
450.442	506.44
450.662	490.44
450.883	489.44
451.104	478.44
451.324	497.44
451.545	455.44
451.766	450.44
451.986	432.44
452.207	427.44
452.428	425.44
452.648	427.44
452.869	416.44
453.089	435.44
453.31	458.44
453.53	424.44
453.751	437.44
453.971	427.44
454.192	436.44
454.412	453.44
454.633	438.44
454.853	439.44
455.073	427.44
455.294	465.44
455.514	545.44
455.734	524.44
455.955	450.44
456.175	409.44
456.395	416.44
456.616	400.44
456.836	397.44
457.056	411.44
457.276	408.44
457.497	409.44
457.717	399.44
457.937	413.44
458.157	419.44
458.377	417.44
458.598	462.44
458.818	520.44
459.038	591.44
459.258	596.44
459.478	498.44
459.698	443.44
459.918	451.44
460.138	438.44
460.358	426.44
460.578	466.44
460.798	442.44
461.018	418.44
461.238	439.44
461.458	444.44
461.678	438.44
461.898	468.44
462.118	450.44
462.338	450.44
462.558	456.44
462.777	445.44
462.997	481.44
463.217	483.44
463.437	474.44
463.657	472.44
463.876	449.44
464.096	460.44
464.316	469.44
464.536	478.44
464.755	492.44
464.975	486.44
465.195	532.44
465.414	633.44
465.634	526.44
465.854	484.44
466.073	478.44
466.293	447.44
466.512	442.44
466.732	429.44
466.951	448.44
467.171	419.44
467.391	429.44
467.61	445.44
467.829	471.44
468.049	441.44
468.268	442.44
468.488	427.44
468.707	420.44
468.927	428.44
469.146	408.44
469.365	428.44
469.585	427.44
469.804	418.44
470.023	455.44
470.243	434.44
470.462	440.44
470.681	456.44
470.901	467.44
471.12	445.44
471.339	424.44
471.558	443.44
471.777	454.44
471.997	424.44
472.216	452.44
472.435	442.44
472.654	441.44
472.873	419.44
473.092	429.44
473.311	416.44
473.53	442.44
473.749	452.44
473.968	487.44
474.187	594.44
474.406	628.44
474.625	483.44
474.844	466.44
475.063	439.44
475.282	442.44
475.501	441.44
475.72	453.44
475.939	443.44
476.158	437.44
476.377	457.44
476.596	458.44
476.814	464.44
477.033	466.44
477.252	468.44
477.471	450.44
477.69	459.44
477.908	482.44
478.127	468.44
478.346	457.44
478.564	475.44
478.783	468.44
479.002	490.44
479.22	483.44
479.439	503.44
479.658	518.44
479.876	527.44
480.095	505.44
480.313	554.44
480.532	549.44
480.751	518.44
480.969	534.44
481.188	532.44
481.406	548.44
481.624	538.44
481.843	519.44
482.061	508.44
482.28	497.44
482.498	534.44
482.717	526.44
482.935	514.44
483.153	498.44
483.372	484.44
483.59	520.44
483.808	501.44
484.027	512.44
484.245	502.44
484.463	504.44
484.681	500.44
484.9	524.44
485.118	532.44
485.336	528.44
485.554	518.44
485.772	533.44
485.99	530.44
486.209	550.44
486.427	538.44
486.645	550.44
486.863	552.44
487.081	561.44
487.299	569.44
487.517	560.44
487.735	553.44
487.953	554.44
488.171	562.44
488.389	545.44
488.607	552.44
488.825	551.44
489.043	553.44
489.261	570.44
489.479	568.44
489.696	567.44
489.914	576.44
490.132	565.44
490.35	580.44
490.568	581.44
490.786	599.44
491.003	594.44
491.221	565.44
491.439	607.44
491.657	644.44
491.874	592.44
492.092	636.44
492.31	647.44
492.527	622.44
492.745	640.44
492.963	658.44
493.18	643.44
493.398	634.44
493.615	637.44
493.833	663.44
494.05	657.44
494.268	636.44
494.485	624.44
494.703	644.44
494.92	643.44
495.138	641.44
495.355	651.44
495.573	652.44
495.79	643.44
496.008	660.44
496.225	636.44
496.442	633.44
496.66	672.44
496.877	664.44
497.094	653.44
497.312	658.44
497.529	673.44
497.746	675.44
497.963	693.44
498.181	693.44
498.398	701.44
498.615	725.44
498.832	728.44
499.049	725.44
499.267	734.44
499.484	758.44
499.701	781.44
499.918	814.44
500.135	859.44
500.352	844.44
500.569	849.44
500.786	863.44
501.003	830.44
501.22	817.44
501.437	793.44
501.654	824.44
501.871	802.44
