Data from 1989.PennyLincolnUp.Lamp.En5.5.200Scan.071819.P2_HRD10591_17-24-41-973.txt Node
Date: Thu Jul 18 17:24:41 EDT 2019
User: cochatt
Spectrometer: HR+D1059
Trigger mode: 1
Integration Time (sec): 1.000000E-1
Scans to average: 1
Electric dark correction enabled: true
Nonlinearity correction enabled: false
Boxcar width: 0
XAxis mode: Wavelengths
Number of Pixels in Spectrum: 2048
>>>>>Begin Spectral Data<<<<<
223.165	-15.06
223.4	-15.06
223.635	-15.06
223.869	-3.06
224.104	-20.06
224.338	-30.06
224.573	-14.06
224.808	-13.06
225.042	-1.06
225.277	-10.06
225.511	4.94
225.746	-3.06
225.98	5.94
226.215	12.94
226.449	13.94
226.683	17.94
226.918	29.94
227.152	23.94
227.387	37.94
227.621	34.94
227.856	39.94
228.09	59.94
228.324	53.94
228.559	47.94
228.793	60.94
229.027	100.94
229.262	125.94
229.496	116.94
229.73	149.94
229.964	152.94
230.199	142.94
230.433	113.94
230.667	111.94
230.901	120.94
231.136	120.94
231.37	101.94
231.604	117.94
231.838	117.94
232.072	122.94
232.306	117.94
232.541	117.94
232.775	110.94
233.009	121.94
233.243	99.94
233.477	113.94
233.711	123.94
233.945	126.94
234.179	146.94
234.413	117.94
234.647	120.94
234.881	126.94
235.115	113.94
235.349	130.94
235.583	127.94
235.817	117.94
236.051	111.94
236.285	126.94
236.519	118.94
236.753	136.94
236.987	151.94
237.221	179.94
237.455	268.94
237.689	204.94
237.922	151.94
238.156	153.94
238.39	137.94
238.624	126.94
238.858	128.94
239.091	133.94
239.325	121.94
239.559	132.94
239.793	133.94
240.027	147.94
240.26	140.94
240.494	148.94
240.728	164.94
240.961	162.94
241.195	172.94
241.429	158.94
241.662	142.94
241.896	138.94
242.13	141.94
242.363	147.94
242.597	151.94
242.83	156.94
243.064	141.94
243.298	165.94
243.531	155.94
243.765	137.94
243.998	155.94
244.232	145.94
244.465	149.94
244.699	127.94
244.932	144.94
245.166	143.94
245.399	156.94
245.633	153.94
245.866	149.94
246.099	150.94
246.333	156.94
246.566	159.94
246.8	169.94
247.033	173.94
247.266	170.94
247.5	175.94
247.733	172.94
247.966	174.94
248.2	203.94
248.433	189.94
248.666	196.94
248.899	206.94
249.133	217.94
249.366	222.94
249.599	206.94
249.832	202.94
250.066	191.94
250.299	186.94
250.532	199.94
250.765	219.94
250.998	238.94
251.231	239.94
251.465	227.94
251.698	228.94
251.931	221.94
252.164	220.94
252.397	209.94
252.63	217.94
252.863	212.94
253.096	228.94
253.329	242.94
253.562	260.94
253.795	251.94
254.028	242.94
254.261	219.94
254.494	261.94
254.727	269.94
254.96	309.94
255.193	305.94
255.426	282.94
255.659	261.94
255.892	238.94
256.124	238.94
256.357	250.94
256.59	228.94
256.823	240.94
257.056	237.94
257.289	222.94
257.521	227.94
257.754	235.94
257.987	245.94
258.22	218.94
258.452	219.94
258.685	215.94
258.918	221.94
259.151	226.94
259.383	259.94
259.616	231.94
259.849	237.94
260.081	271.94
260.314	285.94
260.547	287.94
260.779	273.94
261.012	264.94
261.244	249.94
261.477	243.94
261.71	235.94
261.942	260.94
262.175	261.94
262.407	249.94
262.64	230.94
262.872	234.94
263.105	247.94
263.337	230.94
263.57	223.94
263.802	237.94
264.035	241.94
264.267	223.94
264.499	214.94
264.732	223.94
264.964	230.94
265.197	230.94
265.429	230.94
265.661	246.94
265.894	215.94
266.126	217.94
266.358	226.94
266.591	245.94
266.823	251.94
267.055	245.94
267.287	241.94
267.52	236.94
267.752	264.94
267.984	228.94
268.216	248.94
268.448	258.94
268.681	266.94
268.913	262.94
269.145	289.94
269.377	300.94
269.609	281.94
269.841	296.94
270.073	298.94
270.306	307.94
270.538	353.94
270.77	335.94
271.002	343.94
271.234	338.94
271.466	340.94
271.698	345.94
271.93	346.94
272.162	360.94
272.394	342.94
272.626	341.94
272.858	305.94
273.09	307.94
273.322	281.94
273.553	290.94
273.785	318.94
274.017	289.94
274.249	296.94
274.481	294.94
274.713	275.94
274.945	301.94
275.176	286.94
275.408	285.94
275.64	296.94
275.872	271.94
276.104	297.94
276.335	285.94
276.567	294.94
276.799	303.94
277.031	319.94
277.262	327.94
277.494	354.94
277.726	350.94
277.957	308.94
278.189	314.94
278.421	293.94
278.652	303.94
278.884	295.94
279.115	291.94
279.347	298.94
279.579	279.94
279.81	278.94
280.042	279.94
280.273	280.94
280.505	283.94
280.736	290.94
280.968	286.94
281.199	288.94
281.431	273.94
281.662	296.94
281.894	291.94
282.125	294.94
282.356	312.94
282.588	327.94
282.819	348.94
283.051	299.94
283.282	283.94
283.513	288.94
283.745	303.94
283.976	305.94
284.207	306.94
284.439	290.94
284.67	316.94
284.901	311.94
285.132	287.94
285.364	302.94
285.595	295.94
285.826	295.94
286.057	302.94
286.288	295.94
286.52	289.94
286.751	289.94
286.982	292.94
287.213	302.94
287.444	294.94
287.675	299.94
287.906	328.94
288.138	341.94
288.369	327.94
288.6	336.94
288.831	316.94
289.062	311.94
289.293	318.94
289.524	299.94
289.755	293.94
289.986	324.94
290.217	302.94
290.448	322.94
290.679	293.94
290.91	314.94
291.141	293.94
291.371	301.94
291.602	312.94
291.833	305.94
292.064	309.94
292.295	291.94
292.526	295.94
292.757	310.94
292.987	307.94
293.218	294.94
293.449	313.94
293.68	318.94
293.91	321.94
294.141	308.94
294.372	302.94
294.603	297.94
294.833	300.94
295.064	293.94
295.295	311.94
295.525	326.94
295.756	321.94
295.987	333.94
296.217	336.94
296.448	358.94
296.679	326.94
296.909	308.94
297.14	301.94
297.37	332.94
297.601	306.94
297.831	319.94
298.062	335.94
298.292	343.94
298.523	346.94
298.753	335.94
298.984	326.94
299.214	333.94
299.445	344.94
299.675	331.94
299.905	324.94
300.136	347.94
300.366	333.94
300.597	329.94
300.827	343.94
301.057	352.94
301.288	335.94
301.518	348.94
301.748	336.94
301.979	338.94
302.209	355.94
302.439	327.94
302.669	336.94
302.9	339.94
303.13	345.94
303.36	346.94
303.59	346.94
303.82	339.94
304.051	351.94
304.281	342.94
304.511	335.94
304.741	344.94
304.971	341.94
305.201	350.94
305.431	345.94
305.661	351.94
305.891	339.94
306.121	356.94
306.352	342.94
306.582	340.94
306.812	356.94
307.042	331.94
307.272	345.94
307.502	346.94
307.731	357.94
307.961	336.94
308.191	343.94
308.421	355.94
308.651	358.94
308.881	362.94
309.111	364.94
309.341	371.94
309.571	363.94
309.8	398.94
310.03	385.94
310.26	402.94
310.49	417.94
310.72	415.94
310.949	419.94
311.179	435.94
311.409	406.94
311.639	413.94
311.868	434.94
312.098	417.94
312.328	378.94
312.557	440.94
312.787	435.94
313.017	440.94
313.246	435.94
313.476	395.94
313.706	401.94
313.935	393.94
314.165	413.94
314.394	417.94
314.624	408.94
314.853	402.94
315.083	405.94
315.312	401.94
315.542	383.94
315.771	381.94
316.001	402.94
316.23	387.94
316.46	400.94
316.689	405.94
316.919	385.94
317.148	407.94
317.377	413.94
317.607	423.94
317.836	406.94
318.065	408.94
318.295	380.94
318.524	413.94
318.753	398.94
318.983	409.94
319.212	402.94
319.441	398.94
319.67	427.94
319.9	410.94
320.129	396.94
320.358	424.94
320.587	398.94
320.816	408.94
321.046	426.94
321.275	435.94
321.504	438.94
321.733	426.94
321.962	445.94
322.191	461.94
322.42	473.94
322.649	474.94
322.878	486.94
323.108	510.94
323.337	540.94
323.566	548.94
323.795	606.94
324.024	632.94
324.253	773.94
324.482	1117.94
324.71	1692.94
324.939	2471.94
325.168	2097.94
325.397	1104.94
325.626	739.94
325.855	606.94
326.084	556.94
326.313	541.94
326.542	567.94
326.77	611.94
326.999	702.94
327.228	968.94
327.457	1513.94
327.686	1852.94
327.914	1236.94
328.143	808.94
328.372	698.94
328.6	655.94
328.829	617.94
329.058	635.94
329.287	641.94
329.515	597.94
329.744	535.94
329.972	547.94
330.201	543.94
330.43	580.94
330.658	609.94
330.887	648.94
331.115	635.94
331.344	572.94
331.572	537.94
331.801	524.94
332.03	515.94
332.258	477.94
332.486	479.94
332.715	462.94
332.943	470.94
333.172	475.94
333.4	438.94
333.629	467.94
333.857	510.94
334.085	479.94
334.314	449.94
334.542	494.94
334.771	488.94
334.999	475.94
335.227	470.94
335.455	481.94
335.684	459.94
335.912	438.94
336.14	451.94
336.369	472.94
336.597	461.94
336.825	460.94
337.053	437.94
337.281	453.94
337.51	451.94
337.738	450.94
337.966	459.94
338.194	456.94
338.422	470.94
338.65	434.94
338.878	435.94
339.106	445.94
339.334	438.94
339.562	456.94
339.79	435.94
340.018	459.94
340.246	463.94
340.474	448.94
340.702	447.94
340.93	438.94
341.158	426.94
341.386	465.94
341.614	439.94
341.842	464.94
342.07	453.94
342.298	429.94
342.526	438.94
342.754	433.94
342.981	407.94
343.209	403.94
343.437	430.94
343.665	465.94
343.893	451.94
344.12	458.94
344.348	454.94
344.576	437.94
344.804	444.94
345.031	456.94
345.259	458.94
345.487	466.94
345.714	427.94
345.942	414.94
346.17	435.94
346.397	443.94
346.625	456.94
346.853	435.94
347.08	427.94
347.308	419.94
347.535	433.94
347.763	435.94
347.99	425.94
348.218	431.94
348.445	435.94
348.673	433.94
348.9	439.94
349.128	431.94
349.355	419.94
349.583	418.94
349.81	394.94
350.037	389.94
350.265	416.94
350.492	427.94
350.72	408.94
350.947	421.94
351.174	446.94
351.402	437.94
351.629	436.94
351.856	423.94
352.083	437.94
352.311	449.94
352.538	425.94
352.765	449.94
352.992	446.94
353.22	433.94
353.447	409.94
353.674	409.94
353.901	405.94
354.128	411.94
354.355	396.94
354.583	403.94
354.81	403.94
355.037	390.94
355.264	388.94
355.491	379.94
355.718	405.94
355.945	405.94
356.172	379.94
356.399	399.94
356.626	384.94
356.853	391.94
357.08	375.94
357.307	391.94
357.534	390.94
357.761	383.94
357.988	382.94
358.215	377.94
358.441	399.94
358.668	391.94
358.895	401.94
359.122	398.94
359.349	411.94
359.576	424.94
359.802	446.94
360.029	478.94
360.256	480.94
360.483	471.94
360.709	457.94
360.936	442.94
361.163	415.94
361.39	419.94
361.616	421.94
361.843	427.94
362.07	421.94
362.296	396.94
362.523	408.94
362.749	402.94
362.976	399.94
363.203	402.94
363.429	391.94
363.656	409.94
363.882	398.94
364.109	393.94
364.335	382.94
364.562	393.94
364.788	415.94
365.015	394.94
365.241	409.94
365.468	392.94
365.694	411.94
365.92	419.94
366.147	383.94
366.373	405.94
366.599	398.94
366.826	389.94
367.052	391.94
367.278	390.94
367.505	395.94
367.731	396.94
367.957	391.94
368.184	390.94
368.41	415.94
368.636	399.94
368.862	410.94
369.089	403.94
369.315	387.94
369.541	400.94
369.767	401.94
369.993	388.94
370.219	404.94
370.445	392.94
370.672	393.94
370.898	387.94
371.124	393.94
371.35	405.94
371.576	390.94
371.802	395.94
372.028	382.94
372.254	380.94
372.48	399.94
372.706	376.94
372.932	396.94
373.158	394.94
373.384	383.94
373.61	412.94
373.835	389.94
374.061	397.94
374.287	402.94
374.513	391.94
374.739	395.94
374.965	396.94
375.191	385.94
375.416	383.94
375.642	371.94
375.868	397.94
376.094	389.94
376.319	375.94
376.545	366.94
376.771	387.94
376.997	385.94
377.222	407.94
377.448	363.94
377.674	383.94
377.899	379.94
378.125	378.94
378.35	373.94
378.576	357.94
378.802	388.94
379.027	391.94
379.253	404.94
379.478	363.94
379.704	385.94
379.929	376.94
380.155	381.94
380.38	387.94
380.606	381.94
380.831	378.94
381.057	407.94
381.282	363.94
381.507	387.94
381.733	385.94
381.958	385.94
382.184	387.94
382.409	386.94
382.634	389.94
382.86	393.94
383.085	379.94
383.31	391.94
383.535	401.94
383.761	397.94
383.986	412.94
384.211	409.94
384.436	397.94
384.662	402.94
384.887	417.94
385.112	410.94
385.337	407.94
385.562	409.94
385.787	417.94
386.013	426.94
386.238	424.94
386.463	411.94
386.688	417.94
386.913	419.94
387.138	394.94
387.363	392.94
387.588	378.94
387.813	404.94
388.038	392.94
388.263	415.94
388.488	411.94
388.713	394.94
388.938	426.94
389.163	414.94
389.387	438.94
389.612	409.94
389.837	411.94
390.062	415.94
390.287	389.94
390.512	400.94
390.736	405.94
390.961	405.94
391.186	407.94
391.411	404.94
391.636	403.94
391.86	412.94
392.085	417.94
392.31	399.94
392.534	415.94
392.759	437.94
392.984	395.94
393.208	402.94
393.433	433.94
393.658	389.94
393.882	406.94
394.107	387.94
394.331	396.94
394.556	379.94
394.78	405.94
395.005	406.94
395.229	401.94
395.454	421.94
395.678	434.94
395.903	434.94
396.127	431.94
396.352	447.94
396.576	436.94
396.801	417.94
397.025	421.94
397.249	410.94
397.474	431.94
397.698	440.94
397.922	429.94
398.147	469.94
398.371	474.94
398.595	428.94
398.82	467.94
399.044	439.94
399.268	460.94
399.492	461.94
399.717	515.94
399.941	541.94
400.165	563.94
400.389	564.94
400.613	527.94
400.837	477.94
401.062	457.94
401.286	462.94
401.51	473.94
401.734	444.94
401.958	479.94
402.182	455.94
402.406	460.94
402.63	471.94
402.854	491.94
403.078	465.94
403.302	479.94
403.526	472.94
403.75	477.94
403.974	469.94
404.198	453.94
404.422	466.94
404.645	500.94
404.869	489.94
405.093	499.94
405.317	545.94
405.541	568.94
405.765	497.94
405.988	488.94
406.212	514.94
406.436	536.94
406.66	541.94
406.883	530.94
407.107	541.94
407.331	577.94
407.555	629.94
407.778	615.94
408.002	569.94
408.226	557.94
408.449	534.94
408.673	528.94
408.896	564.94
409.12	585.94
409.344	555.94
409.567	491.94
409.791	481.94
410.014	488.94
410.238	475.94
410.461	482.94
410.685	487.94
410.908	503.94
411.132	526.94
411.355	559.94
411.578	531.94
411.802	485.94
412.025	456.94
412.249	480.94
412.472	489.94
412.695	493.94
412.919	482.94
413.142	459.94
413.365	458.94
413.589	440.94
413.812	452.94
414.035	443.94
414.258	446.94
414.482	433.94
414.705	450.94
414.928	413.94
415.151	437.94
415.374	451.94
415.597	443.94
415.821	437.94
416.044	459.94
416.267	446.94
416.49	444.94
416.713	456.94
416.936	431.94
417.159	428.94
417.382	453.94
417.605	463.94
417.828	462.94
418.051	469.94
418.274	467.94
418.497	471.94
418.72	450.94
418.943	437.94
419.166	455.94
419.389	474.94
419.611	475.94
419.834	450.94
420.057	473.94
420.28	475.94
420.503	468.94
420.726	471.94
420.948	491.94
421.171	524.94
421.394	561.94
421.617	507.94
421.839	480.94
422.062	462.94
422.285	493.94
422.507	535.94
422.73	615.94
422.953	616.94
423.175	524.94
423.398	515.94
423.621	499.94
423.843	505.94
424.066	502.94
424.288	501.94
424.511	538.94
424.733	574.94
424.956	672.94
425.178	633.94
425.401	631.94
425.623	659.94
425.846	547.94
426.068	516.94
426.291	525.94
426.513	502.94
426.735	534.94
426.958	561.94
427.18	651.94
427.402	772.94
427.625	877.94
427.847	762.94
428.069	633.94
428.292	545.94
428.514	526.94
428.736	497.94
428.958	499.94
429.181	473.94
429.403	471.94
429.625	482.94
429.847	501.94
430.069	584.94
430.292	577.94
430.514	501.94
430.736	485.94
430.958	482.94
431.18	461.94
431.402	450.94
431.624	443.94
431.846	436.94
432.068	435.94
432.29	441.94
432.512	453.94
432.734	464.94
432.956	446.94
433.178	453.94
433.4	472.94
433.622	445.94
433.844	433.94
434.066	443.94
434.287	442.94
434.509	456.94
434.731	453.94
434.953	475.94
435.175	473.94
435.397	505.94
435.618	532.94
435.84	579.94
436.062	635.94
436.284	697.94
436.505	591.94
436.727	553.94
436.949	511.94
437.17	484.94
437.392	476.94
437.614	489.94
437.835	519.94
438.057	631.94
438.278	734.94
438.5	721.94
438.721	789.94
438.943	752.94
439.165	597.94
439.386	565.94
439.608	548.94
439.829	522.94
440.05	583.94
440.272	614.94
440.493	548.94
440.715	519.94
440.936	480.94
441.158	479.94
441.379	475.94
441.6	488.94
441.822	501.94
442.043	549.94
442.264	630.94
442.486	673.94
442.707	570.94
442.928	569.94
443.149	547.94
443.371	559.94
443.592	587.94
443.813	697.94
444.034	729.94
444.255	626.94
444.476	537.94
444.698	526.94
444.919	502.94
445.14	588.94
445.361	576.94
445.582	549.94
445.803	639.94
446.024	715.94
446.245	716.94
446.466	669.94
446.687	583.94
446.908	535.94
447.129	488.94
447.35	485.94
447.571	473.94
447.792	478.94
448.013	489.94
448.234	510.94
448.455	553.94
448.675	669.94
448.896	761.94
449.117	677.94
449.338	618.94
449.559	732.94
449.779	826.94
450	643.94
450.221	551.94
450.442	489.94
450.662	465.94
450.883	489.94
451.104	488.94
451.324	483.94
451.545	461.94
451.766	447.94
451.986	429.94
452.207	437.94
452.428	431.94
452.648	432.94
452.869	430.94
453.089	434.94
453.31	461.94
453.53	446.94
453.751	422.94
453.971	435.94
454.192	459.94
454.412	444.94
454.633	421.94
454.853	410.94
455.073	407.94
455.294	460.94
455.514	535.94
455.734	501.94
455.955	449.94
456.175	409.94
456.395	408.94
456.616	392.94
456.836	421.94
457.056	411.94
457.276	399.94
457.497	400.94
457.717	405.94
457.937	407.94
458.157	413.94
458.377	409.94
458.598	445.94
458.818	500.94
459.038	577.94
459.258	597.94
459.478	489.94
459.698	461.94
459.918	439.94
460.138	428.94
460.358	433.94
460.578	441.94
460.798	457.94
461.018	463.94
461.238	442.94
461.458	429.94
461.678	426.94
461.898	444.94
462.118	417.94
462.338	435.94
462.558	435.94
462.777	445.94
462.997	453.94
463.217	466.94
463.437	473.94
463.657	456.94
463.876	462.94
464.096	467.94
464.316	453.94
464.536	482.94
464.755	477.94
464.975	486.94
465.195	537.94
465.414	600.94
465.634	540.94
465.854	484.94
466.073	451.94
466.293	447.94
466.512	450.94
466.732	440.94
466.951	418.94
467.171	427.94
467.391	423.94
467.61	430.94
467.829	436.94
468.049	437.94
468.268	443.94
468.488	411.94
468.707	399.94
468.927	446.94
469.146	413.94
469.365	445.94
469.585	405.94
469.804	414.94
470.023	433.94
470.243	427.94
470.462	444.94
470.681	475.94
470.901	451.94
471.12	429.94
471.339	412.94
471.558	435.94
471.777	420.94
471.997	433.94
472.216	423.94
472.435	448.94
472.654	429.94
472.873	428.94
473.092	421.94
473.311	427.94
473.53	421.94
473.749	431.94
473.968	467.94
474.187	575.94
474.406	619.94
474.625	532.94
474.844	457.94
475.063	475.94
475.282	434.94
475.501	440.94
475.72	454.94
475.939	451.94
476.158	446.94
476.377	451.94
476.596	459.94
476.814	466.94
477.033	464.94
477.252	452.94
477.471	450.94
477.69	472.94
477.908	466.94
478.127	489.94
478.346	442.94
478.564	463.94
478.783	481.94
479.002	459.94
479.22	490.94
479.439	517.94
479.658	517.94
479.876	534.94
480.095	525.94
480.313	553.94
480.532	542.94
480.751	527.94
480.969	531.94
481.188	554.94
481.406	571.94
481.624	542.94
481.843	545.94
482.061	513.94
482.28	505.94
482.498	498.94
482.717	492.94
482.935	501.94
483.153	499.94
483.372	528.94
483.59	521.94
483.808	491.94
484.027	501.94
484.245	508.94
484.463	519.94
484.681	511.94
484.9	517.94
485.118	517.94
485.336	505.94
485.554	536.94
485.772	570.94
485.99	531.94
486.209	539.94
486.427	537.94
486.645	556.94
486.863	570.94
487.081	561.94
487.299	570.94
487.517	541.94
487.735	545.94
487.953	557.94
488.171	562.94
488.389	531.94
488.607	544.94
488.825	576.94
489.043	565.94
489.261	541.94
489.479	590.94
489.696	582.94
489.914	572.94
490.132	563.94
490.35	558.94
490.568	557.94
490.786	595.94
491.003	575.94
491.221	596.94
491.439	623.94
491.657	606.94
491.874	623.94
492.092	619.94
492.31	638.94
492.527	620.94
492.745	635.94
492.963	633.94
493.18	642.94
493.398	644.94
493.615	645.94
493.833	662.94
494.05	662.94
494.268	655.94
494.485	647.94
494.703	670.94
494.92	656.94
495.138	651.94
495.355	655.94
495.573	646.94
495.79	642.94
496.008	659.94
496.225	636.94
496.442	639.94
496.66	662.94
496.877	667.94
497.094	658.94
497.312	658.94
497.529	694.94
497.746	678.94
497.963	672.94
498.181	698.94
498.398	710.94
498.615	685.94
498.832	720.94
499.049	731.94
499.267	714.94
499.484	763.94
499.701	789.94
499.918	789.94
500.135	810.94
500.352	855.94
500.569	849.94
500.786	863.94
501.003	868.94
501.22	833.94
501.437	821.94
501.654	802.94
501.871	785.94
