Data from 1989.PennyLincolnUp.Lamp.En5.5.200Scan.071819.P2_HRD10591_17-24-44-973.txt Node
Date: Thu Jul 18 17:24:44 EDT 2019
User: cochatt
Spectrometer: HR+D1059
Trigger mode: 1
Integration Time (sec): 1.000000E-1
Scans to average: 1
Electric dark correction enabled: true
Nonlinearity correction enabled: false
Boxcar width: 0
XAxis mode: Wavelengths
Number of Pixels in Spectrum: 2048
>>>>>Begin Spectral Data<<<<<
223.165	-13.69
223.4	-13.69
223.635	-13.69
223.869	-13.69
224.104	-25.69
224.338	-10.69
224.573	-24.69
224.808	-10.69
225.042	0.31
225.277	-9.69
225.511	-11.69
225.746	-7.69
225.98	-4.69
226.215	27.31
226.449	20.31
226.683	21.31
226.918	25.31
227.152	38.31
227.387	33.31
227.621	50.31
227.856	40.31
228.09	44.31
228.324	38.31
228.559	38.31
228.793	67.31
229.027	93.31
229.262	96.31
229.496	112.31
229.73	143.31
229.964	156.31
230.199	131.31
230.433	109.31
230.667	117.31
230.901	105.31
231.136	93.31
231.37	112.31
231.604	93.31
231.838	109.31
232.072	103.31
232.306	124.31
232.541	128.31
232.775	114.31
233.009	109.31
233.243	122.31
233.477	128.31
233.711	97.31
233.945	116.31
234.179	122.31
234.413	119.31
234.647	121.31
234.881	122.31
235.115	127.31
235.349	124.31
235.583	133.31
235.817	129.31
236.051	131.31
236.285	130.31
236.519	122.31
236.753	134.31
236.987	142.31
237.221	183.31
237.455	244.31
237.689	202.31
237.922	163.31
238.156	138.31
238.39	139.31
238.624	132.31
238.858	127.31
239.091	117.31
239.325	142.31
239.559	126.31
239.793	124.31
240.027	138.31
240.26	144.31
240.494	162.31
240.728	152.31
240.961	161.31
241.195	143.31
241.429	142.31
241.662	132.31
241.896	131.31
242.13	138.31
242.363	136.31
242.597	145.31
242.83	148.31
243.064	140.31
243.298	155.31
243.531	149.31
243.765	148.31
243.998	146.31
244.232	157.31
244.465	152.31
244.699	150.31
244.932	155.31
245.166	158.31
245.399	162.31
245.633	151.31
245.866	155.31
246.099	158.31
246.333	148.31
246.566	157.31
246.8	149.31
247.033	176.31
247.266	165.31
247.5	176.31
247.733	168.31
247.966	173.31
248.2	170.31
248.433	181.31
248.666	192.31
248.899	196.31
249.133	218.31
249.366	226.31
249.599	203.31
249.832	200.31
250.066	180.31
250.299	180.31
250.532	205.31
250.765	212.31
250.998	217.31
251.231	225.31
251.465	226.31
251.698	218.31
251.931	223.31
252.164	206.31
252.397	214.31
252.63	209.31
252.863	225.31
253.096	250.31
253.329	240.31
253.562	235.31
253.795	222.31
254.028	213.31
254.261	230.31
254.494	261.31
254.727	295.31
254.96	301.31
255.193	294.31
255.426	275.31
255.659	247.31
255.892	252.31
256.124	249.31
256.357	254.31
256.59	250.31
256.823	252.31
257.056	242.31
257.289	222.31
257.521	220.31
257.754	220.31
257.987	229.31
258.22	215.31
258.452	218.31
258.685	225.31
258.918	211.31
259.151	234.31
259.383	249.31
259.616	242.31
259.849	259.31
260.081	269.31
260.314	270.31
260.547	261.31
260.779	265.31
261.012	248.31
261.244	261.31
261.477	251.31
261.71	239.31
261.942	240.31
262.175	268.31
262.407	257.31
262.64	241.31
262.872	244.31
263.105	228.31
263.337	229.31
263.57	227.31
263.802	236.31
264.035	236.31
264.267	224.31
264.499	231.31
264.732	215.31
264.964	213.31
265.197	241.31
265.429	233.31
265.661	233.31
265.894	234.31
266.126	248.31
266.358	231.31
266.591	243.31
266.823	236.31
267.055	260.31
267.287	237.31
267.52	227.31
267.752	252.31
267.984	238.31
268.216	234.31
268.448	248.31
268.681	261.31
268.913	280.31
269.145	282.31
269.377	305.31
269.609	294.31
269.841	286.31
270.073	311.31
270.306	324.31
270.538	353.31
270.77	339.31
271.002	327.31
271.234	318.31
271.466	322.31
271.698	341.31
271.93	354.31
272.162	346.31
272.394	344.31
272.626	321.31
272.858	322.31
273.09	281.31
273.322	308.31
273.553	294.31
273.785	270.31
274.017	273.31
274.249	297.31
274.481	297.31
274.713	304.31
274.945	296.31
275.176	282.31
275.408	289.31
275.64	282.31
275.872	299.31
276.104	284.31
276.335	276.31
276.567	289.31
276.799	313.31
277.031	334.31
277.262	347.31
277.494	336.31
277.726	324.31
277.957	340.31
278.189	300.31
278.421	296.31
278.652	285.31
278.884	304.31
279.115	291.31
279.347	301.31
279.579	296.31
279.81	290.31
280.042	279.31
280.273	282.31
280.505	287.31
280.736	300.31
280.968	289.31
281.199	294.31
281.431	293.31
281.662	270.31
281.894	288.31
282.125	293.31
282.356	314.31
282.588	335.31
282.819	334.31
283.051	298.31
283.282	289.31
283.513	306.31
283.745	294.31
283.976	296.31
284.207	304.31
284.439	314.31
284.67	293.31
284.901	292.31
285.132	305.31
285.364	310.31
285.595	306.31
285.826	300.31
286.057	286.31
286.288	288.31
286.52	295.31
286.751	300.31
286.982	305.31
287.213	295.31
287.444	298.31
287.675	311.31
287.906	317.31
288.138	326.31
288.369	333.31
288.6	334.31
288.831	320.31
289.062	299.31
289.293	306.31
289.524	306.31
289.755	304.31
289.986	311.31
290.217	305.31
290.448	302.31
290.679	322.31
290.91	313.31
291.141	334.31
291.371	295.31
291.602	294.31
291.833	304.31
292.064	327.31
292.295	306.31
292.526	316.31
292.757	298.31
292.987	316.31
293.218	304.31
293.449	316.31
293.68	313.31
293.91	305.31
294.141	305.31
294.372	302.31
294.603	308.31
294.833	308.31
295.064	325.31
295.295	326.31
295.525	305.31
295.756	297.31
295.987	322.31
296.217	361.31
296.448	342.31
296.679	332.31
296.909	324.31
297.14	329.31
297.37	314.31
297.601	309.31
297.831	318.31
298.062	330.31
298.292	329.31
298.523	310.31
298.753	331.31
298.984	332.31
299.214	309.31
299.445	334.31
299.675	347.31
299.905	343.31
300.136	321.31
300.366	337.31
300.597	314.31
300.827	340.31
301.057	347.31
301.288	368.31
301.518	352.31
301.748	355.31
301.979	348.31
302.209	336.31
302.439	369.31
302.669	339.31
302.9	362.31
303.13	354.31
303.36	373.31
303.59	357.31
303.82	359.31
304.051	348.31
304.281	374.31
304.511	381.31
304.741	354.31
304.971	348.31
305.201	350.31
305.431	355.31
305.661	348.31
305.891	337.31
306.121	352.31
306.352	342.31
306.582	362.31
306.812	337.31
307.042	353.31
307.272	362.31
307.502	360.31
307.731	365.31
307.961	328.31
308.191	342.31
308.421	348.31
308.651	351.31
308.881	354.31
309.111	340.31
309.341	350.31
309.571	389.31
309.8	390.31
310.03	390.31
310.26	408.31
310.49	398.31
310.72	397.31
310.949	416.31
311.179	424.31
311.409	409.31
311.639	395.31
311.868	409.31
312.098	423.31
312.328	402.31
312.557	426.31
312.787	435.31
313.017	444.31
313.246	433.31
313.476	413.31
313.706	410.31
313.935	381.31
314.165	418.31
314.394	421.31
314.624	428.31
314.853	430.31
315.083	411.31
315.312	389.31
315.542	410.31
315.771	391.31
316.001	393.31
316.23	392.31
316.46	417.31
316.689	428.31
316.919	395.31
317.148	390.31
317.377	434.31
317.607	397.31
317.836	413.31
318.065	403.31
318.295	396.31
318.524	394.31
318.753	414.31
318.983	410.31
319.212	401.31
319.441	429.31
319.67	427.31
319.9	394.31
320.129	414.31
320.358	417.31
320.587	401.31
320.816	424.31
321.046	440.31
321.275	428.31
321.504	425.31
321.733	425.31
321.962	441.31
322.191	457.31
322.42	483.31
322.649	466.31
322.878	477.31
323.108	517.31
323.337	536.31
323.566	551.31
323.795	590.31
324.024	644.31
324.253	778.31
324.482	1144.31
324.71	1740.31
324.939	2488.31
325.168	2128.31
325.397	1138.31
325.626	753.31
325.855	614.31
326.084	563.31
326.313	548.31
326.542	564.31
326.77	612.31
326.999	727.31
327.228	1000.31
327.457	1508.31
327.686	1846.31
327.914	1244.31
328.143	809.31
328.372	689.31
328.6	655.31
328.829	632.31
329.058	624.31
329.287	637.31
329.515	626.31
329.744	540.31
329.972	534.31
330.201	531.31
330.43	590.31
330.658	613.31
330.887	649.31
331.115	641.31
331.344	560.31
331.572	548.31
331.801	513.31
332.03	542.31
332.258	503.31
332.486	469.31
332.715	473.31
332.943	474.31
333.172	476.31
333.4	455.31
333.629	492.31
333.857	498.31
334.085	502.31
334.314	498.31
334.542	494.31
334.771	505.31
334.999	490.31
335.227	486.31
335.455	465.31
335.684	473.31
335.912	462.31
336.14	480.31
336.369	474.31
336.597	473.31
336.825	477.31
337.053	479.31
337.281	464.31
337.51	472.31
337.738	456.31
337.966	463.31
338.194	477.31
338.422	464.31
338.65	463.31
338.878	468.31
339.106	461.31
339.334	442.31
339.562	440.31
339.79	428.31
340.018	434.31
340.246	444.31
340.474	456.31
340.702	461.31
340.93	460.31
341.158	460.31
341.386	438.31
341.614	448.31
341.842	453.31
342.07	438.31
342.298	453.31
342.526	445.31
342.754	442.31
342.981	434.31
343.209	443.31
343.437	445.31
343.665	436.31
343.893	454.31
344.12	474.31
344.348	443.31
344.576	464.31
344.804	454.31
345.031	480.31
345.259	477.31
345.487	472.31
345.714	465.31
345.942	428.31
346.17	429.31
346.397	457.31
346.625	433.31
346.853	409.31
347.08	424.31
347.308	435.31
347.535	448.31
347.763	446.31
347.99	446.31
348.218	438.31
348.445	429.31
348.673	417.31
348.9	435.31
349.128	427.31
349.355	400.31
349.583	412.31
349.81	409.31
350.037	412.31
350.265	412.31
350.492	401.31
350.72	418.31
350.947	391.31
351.174	426.31
351.402	439.31
351.629	446.31
351.856	432.31
352.083	449.31
352.311	459.31
352.538	459.31
352.765	455.31
352.992	430.31
353.22	446.31
353.447	436.31
353.674	427.31
353.901	412.31
354.128	411.31
354.355	423.31
354.583	401.31
354.81	401.31
355.037	395.31
355.264	419.31
355.491	413.31
355.718	381.31
355.945	410.31
356.172	399.31
356.399	402.31
356.626	402.31
356.853	388.31
357.08	388.31
357.307	369.31
357.534	407.31
357.761	376.31
357.988	414.31
358.215	412.31
358.441	394.31
358.668	371.31
358.895	405.31
359.122	401.31
359.349	414.31
359.576	433.31
359.802	462.31
360.029	494.31
360.256	488.31
360.483	466.31
360.709	418.31
360.936	437.31
361.163	430.31
361.39	422.31
361.616	428.31
361.843	407.31
362.07	410.31
362.296	399.31
362.523	427.31
362.749	416.31
362.976	421.31
363.203	412.31
363.429	427.31
363.656	413.31
363.882	406.31
364.109	403.31
364.335	397.31
364.562	429.31
364.788	418.31
365.015	387.31
365.241	412.31
365.468	417.31
365.694	410.31
365.92	409.31
366.147	416.31
366.373	401.31
366.599	410.31
366.826	410.31
367.052	388.31
367.278	403.31
367.505	410.31
367.731	380.31
367.957	401.31
368.184	403.31
368.41	401.31
368.636	416.31
368.862	441.31
369.089	410.31
369.315	413.31
369.541	397.31
369.767	416.31
369.993	404.31
370.219	389.31
370.445	405.31
370.672	403.31
370.898	386.31
371.124	387.31
371.35	392.31
371.576	395.31
371.802	388.31
372.028	406.31
372.254	397.31
372.48	398.31
372.706	392.31
372.932	399.31
373.158	412.31
373.384	389.31
373.61	395.31
373.835	391.31
374.061	418.31
374.287	401.31
374.513	417.31
374.739	376.31
374.965	402.31
375.191	385.31
375.416	404.31
375.642	384.31
375.868	385.31
376.094	392.31
376.319	395.31
376.545	406.31
376.771	365.31
376.997	388.31
377.222	398.31
377.448	399.31
377.674	379.31
377.899	382.31
378.125	385.31
378.35	376.31
378.576	393.31
378.802	390.31
379.027	391.31
379.253	370.31
379.478	392.31
379.704	385.31
379.929	394.31
380.155	392.31
380.38	380.31
380.606	389.31
380.831	389.31
381.057	378.31
381.282	389.31
381.507	387.31
381.733	377.31
381.958	406.31
382.184	405.31
382.409	386.31
382.634	407.31
382.86	393.31
383.085	392.31
383.31	411.31
383.535	407.31
383.761	410.31
383.986	408.31
384.211	403.31
384.436	391.31
384.662	400.31
384.887	421.31
385.112	408.31
385.337	400.31
385.562	408.31
385.787	401.31
386.013	431.31
386.238	408.31
386.463	402.31
386.688	407.31
386.913	434.31
387.138	400.31
387.363	402.31
387.588	425.31
387.813	410.31
388.038	413.31
388.263	390.31
388.488	419.31
388.713	412.31
388.938	425.31
389.163	413.31
389.387	417.31
389.612	395.31
389.837	408.31
390.062	416.31
390.287	418.31
390.512	412.31
390.736	411.31
390.961	420.31
391.186	414.31
391.411	393.31
391.636	416.31
391.86	413.31
392.085	416.31
392.31	423.31
392.534	417.31
392.759	435.31
392.984	413.31
393.208	414.31
393.433	410.31
393.658	422.31
393.882	416.31
394.107	429.31
394.331	411.31
394.556	400.31
394.78	416.31
395.005	440.31
395.229	420.31
395.454	426.31
395.678	404.31
395.903	410.31
396.127	448.31
396.352	462.31
396.576	438.31
396.801	430.31
397.025	429.31
397.249	430.31
397.474	433.31
397.698	432.31
397.922	463.31
398.147	449.31
398.371	471.31
398.595	458.31
398.82	453.31
399.044	457.31
399.268	467.31
399.492	503.31
399.717	521.31
399.941	540.31
400.165	555.31
400.389	585.31
400.613	528.31
400.837	502.31
401.062	482.31
401.286	473.31
401.51	451.31
401.734	451.31
401.958	461.31
402.182	466.31
402.406	498.31
402.63	476.31
402.854	483.31
403.078	477.31
403.302	477.31
403.526	492.31
403.75	498.31
403.974	469.31
404.198	467.31
404.422	488.31
404.645	476.31
404.869	490.31
405.093	518.31
405.317	530.31
405.541	568.31
405.765	512.31
405.988	501.31
406.212	514.31
406.436	538.31
406.66	553.31
406.883	530.31
407.107	569.31
407.331	582.31
407.555	648.31
407.778	635.31
408.002	577.31
408.226	566.31
408.449	536.31
408.673	549.31
408.896	550.31
409.12	621.31
409.344	561.31
409.567	468.31
409.791	493.31
410.014	474.31
410.238	475.31
410.461	483.31
410.685	484.31
410.908	498.31
411.132	530.31
411.355	574.31
411.578	534.31
411.802	500.31
412.025	476.31
412.249	473.31
412.472	480.31
412.695	520.31
412.919	519.31
413.142	485.31
413.365	445.31
413.589	475.31
413.812	472.31
414.035	459.31
414.258	461.31
414.482	441.31
414.705	458.31
414.928	442.31
415.151	463.31
415.374	438.31
415.597	456.31
415.821	452.31
416.044	460.31
416.267	444.31
416.49	442.31
416.713	460.31
416.936	462.31
417.159	464.31
417.382	450.31
417.605	448.31
417.828	473.31
418.051	475.31
418.274	458.31
418.497	471.31
418.72	471.31
418.943	420.31
419.166	470.31
419.389	488.31
419.611	472.31
419.834	470.31
420.057	484.31
420.28	484.31
420.503	469.31
420.726	468.31
420.948	485.31
421.171	520.31
421.394	572.31
421.617	500.31
421.839	494.31
422.062	484.31
422.285	480.31
422.507	555.31
422.73	619.31
422.953	617.31
423.175	532.31
423.398	511.31
423.621	512.31
423.843	514.31
424.066	502.31
424.288	522.31
424.511	535.31
424.733	602.31
424.956	654.31
425.178	641.31
425.401	645.31
425.623	660.31
425.846	546.31
426.068	533.31
426.291	520.31
426.513	516.31
426.735	560.31
426.958	587.31
427.18	666.31
427.402	782.31
427.625	882.31
427.847	762.31
428.069	634.31
428.292	577.31
428.514	503.31
428.736	511.31
428.958	499.31
429.181	480.31
429.403	482.31
429.625	501.31
429.847	520.31
430.069	600.31
430.292	592.31
430.514	527.31
430.736	509.31
430.958	481.31
431.18	465.31
431.402	443.31
431.624	462.31
431.846	445.31
432.068	453.31
432.29	442.31
432.512	421.31
432.734	455.31
432.956	467.31
433.178	457.31
433.4	462.31
433.622	457.31
433.844	455.31
434.066	443.31
434.287	458.31
434.509	466.31
434.731	465.31
434.953	471.31
435.175	491.31
435.397	524.31
435.618	516.31
435.84	579.31
436.062	657.31
436.284	717.31
436.505	613.31
436.727	553.31
436.949	487.31
437.17	474.31
437.392	474.31
437.614	515.31
437.835	521.31
438.057	627.31
438.278	731.31
438.5	731.31
438.721	770.31
438.943	757.31
439.165	600.31
439.386	564.31
439.608	537.31
439.829	544.31
440.05	571.31
440.272	617.31
440.493	578.31
440.715	529.31
440.936	499.31
441.158	509.31
441.379	488.31
441.6	498.31
441.822	522.31
442.043	562.31
442.264	626.31
442.486	697.31
442.707	585.31
442.928	553.31
443.149	576.31
443.371	572.31
443.592	618.31
443.813	710.31
444.034	736.31
444.255	633.31
444.476	556.31
444.698	535.31
444.919	513.31
445.14	614.31
445.361	581.31
445.582	567.31
445.803	614.31
446.024	741.31
446.245	765.31
446.466	703.31
446.687	585.31
446.908	521.31
447.129	494.31
447.35	475.31
447.571	482.31
447.792	489.31
448.013	500.31
448.234	520.31
448.455	577.31
448.675	680.31
448.896	814.31
449.117	690.31
449.338	644.31
449.559	738.31
449.779	816.31
450	658.31
450.221	572.31
450.442	508.31
450.662	493.31
450.883	492.31
451.104	504.31
451.324	489.31
451.545	477.31
451.766	457.31
451.986	441.31
452.207	419.31
452.428	417.31
452.648	419.31
452.869	417.31
453.089	436.31
453.31	444.31
453.53	434.31
453.751	439.31
453.971	402.31
454.192	441.31
454.412	472.31
454.633	448.31
454.853	426.31
455.073	437.31
455.294	480.31
455.514	521.31
455.734	491.31
455.955	461.31
456.175	436.31
456.395	426.31
456.616	410.31
456.836	396.31
457.056	418.31
457.276	391.31
457.497	413.31
457.717	408.31
457.937	398.31
458.157	390.31
458.377	420.31
458.598	420.31
458.818	485.31
459.038	585.31
459.258	597.31
459.478	509.31
459.698	450.31
459.918	442.31
460.138	443.31
460.358	440.31
460.578	447.31
460.798	452.31
461.018	466.31
461.238	433.31
461.458	460.31
461.678	429.31
461.898	445.31
462.118	436.31
462.338	447.31
462.558	453.31
462.777	467.31
462.997	461.31
463.217	479.31
463.437	491.31
463.657	477.31
463.876	475.31
464.096	469.31
464.316	467.31
464.536	458.31
464.755	467.31
464.975	493.31
465.195	534.31
465.414	617.31
465.634	520.31
465.854	478.31
466.073	459.31
466.293	410.31
466.512	422.31
466.732	447.31
466.951	439.31
467.171	420.31
467.391	454.31
467.61	427.31
467.829	441.31
468.049	429.31
468.268	442.31
468.488	400.31
468.707	438.31
468.927	430.31
469.146	418.31
469.365	433.31
469.585	406.31
469.804	422.31
470.023	427.31
470.243	443.31
470.462	446.31
470.681	481.31
470.901	448.31
471.12	443.31
471.339	412.31
471.558	434.31
471.777	416.31
471.997	416.31
472.216	419.31
472.435	440.31
472.654	431.31
472.873	427.31
473.092	439.31
473.311	425.31
473.53	431.31
473.749	448.31
473.968	495.31
474.187	588.31
474.406	630.31
474.625	502.31
474.844	466.31
475.063	437.31
475.282	443.31
475.501	438.31
475.72	451.31
475.939	453.31
476.158	453.31
476.377	434.31
476.596	443.31
476.814	457.31
477.033	461.31
477.252	482.31
477.471	475.31
477.69	460.31
477.908	462.31
478.127	475.31
478.346	474.31
478.564	500.31
478.783	483.31
479.002	502.31
479.22	489.31
479.439	508.31
479.658	533.31
479.876	543.31
480.095	519.31
480.313	558.31
480.532	561.31
480.751	515.31
480.969	546.31
481.188	575.31
481.406	562.31
481.624	560.31
481.843	515.31
482.061	506.31
482.28	500.31
482.498	517.31
482.717	526.31
482.935	500.31
483.153	520.31
483.372	501.31
483.59	514.31
483.808	520.31
484.027	534.31
484.245	532.31
484.463	514.31
484.681	551.31
484.9	537.31
485.118	521.31
485.336	506.31
485.554	532.31
485.772	547.31
485.99	533.31
486.209	541.31
486.427	533.31
486.645	521.31
486.863	561.31
487.081	554.31
487.299	534.31
487.517	561.31
487.735	558.31
487.953	544.31
488.171	544.31
488.389	572.31
488.607	581.31
488.825	572.31
489.043	551.31
489.261	566.31
489.479	554.31
489.696	570.31
489.914	576.31
490.132	580.31
490.35	551.31
490.568	556.31
490.786	579.31
491.003	612.31
491.221	609.31
491.439	587.31
491.657	618.31
491.874	626.31
492.092	650.31
492.31	651.31
492.527	637.31
492.745	636.31
492.963	645.31
493.18	640.31
493.398	629.31
493.615	638.31
493.833	644.31
494.05	669.31
494.268	650.31
494.485	657.31
494.703	659.31
494.92	673.31
495.138	659.31
495.355	668.31
495.573	646.31
495.79	626.31
496.008	682.31
496.225	649.31
496.442	620.31
496.66	654.31
496.877	661.31
497.094	645.31
497.312	662.31
497.529	682.31
497.746	690.31
497.963	702.31
498.181	713.31
498.398	718.31
498.615	721.31
498.832	734.31
499.049	722.31
499.267	725.31
499.484	765.31
499.701	787.31
499.918	810.31
500.135	797.31
500.352	848.31
500.569	856.31
500.786	873.31
501.003	861.31
501.22	866.31
501.437	829.31
501.654	832.31
501.871	809.31
