Data from 1989.PennyLincolnUp.Lamp.En5.5.200Scan.071819.P2_HRD10591_17-25-10-973.txt Node
Date: Thu Jul 18 17:25:10 EDT 2019
User: cochatt
Spectrometer: HR+D1059
Trigger mode: 1
Integration Time (sec): 1.000000E-1
Scans to average: 1
Electric dark correction enabled: true
Nonlinearity correction enabled: false
Boxcar width: 0
XAxis mode: Wavelengths
Number of Pixels in Spectrum: 2048
>>>>>Begin Spectral Data<<<<<
223.165	-16.06
223.4	-16.06
223.635	-16.06
223.869	-8.06
224.104	-22.06
224.338	-21.06
224.573	-21.06
224.808	-16.06
225.042	-6.06
225.277	-3.06
225.511	0.94
225.746	5.94
225.98	11.94
226.215	-0.06
226.449	10.94
226.683	25.94
226.918	20.94
227.152	36.94
227.387	28.94
227.621	37.94
227.856	43.94
228.09	50.94
228.324	51.94
228.559	44.94
228.793	57.94
229.027	103.94
229.262	101.94
229.496	110.94
229.73	152.94
229.964	164.94
230.199	145.94
230.433	127.94
230.667	116.94
230.901	106.94
231.136	110.94
231.37	123.94
231.604	112.94
231.838	105.94
232.072	112.94
232.306	109.94
232.541	115.94
232.775	113.94
233.009	118.94
233.243	115.94
233.477	121.94
233.711	108.94
233.945	121.94
234.179	127.94
234.413	121.94
234.647	118.94
234.881	119.94
235.115	119.94
235.349	117.94
235.583	120.94
235.817	119.94
236.051	109.94
236.285	136.94
236.519	117.94
236.753	130.94
236.987	165.94
237.221	190.94
237.455	273.94
237.689	203.94
237.922	154.94
238.156	142.94
238.39	128.94
238.624	145.94
238.858	122.94
239.091	135.94
239.325	138.94
239.559	131.94
239.793	137.94
240.027	145.94
240.26	157.94
240.494	163.94
240.728	170.94
240.961	142.94
241.195	151.94
241.429	152.94
241.662	136.94
241.896	150.94
242.13	136.94
242.363	135.94
242.597	139.94
242.83	141.94
243.064	145.94
243.298	143.94
243.531	152.94
243.765	145.94
243.998	157.94
244.232	159.94
244.465	131.94
244.699	150.94
244.932	158.94
245.166	149.94
245.399	152.94
245.633	157.94
245.866	154.94
246.099	153.94
246.333	155.94
246.566	175.94
246.8	163.94
247.033	164.94
247.266	175.94
247.5	182.94
247.733	169.94
247.966	180.94
248.2	184.94
248.433	183.94
248.666	171.94
248.899	201.94
249.133	211.94
249.366	230.94
249.599	217.94
249.832	202.94
250.066	199.94
250.299	208.94
250.532	213.94
250.765	228.94
250.998	233.94
251.231	255.94
251.465	252.94
251.698	225.94
251.931	221.94
252.164	226.94
252.397	196.94
252.63	217.94
252.863	216.94
253.096	213.94
253.329	253.94
253.562	246.94
253.795	244.94
254.028	247.94
254.261	226.94
254.494	255.94
254.727	266.94
254.96	308.94
255.193	319.94
255.426	282.94
255.659	261.94
255.892	264.94
256.124	251.94
256.357	244.94
256.59	244.94
256.823	239.94
257.056	233.94
257.289	251.94
257.521	238.94
257.754	232.94
257.987	233.94
258.22	221.94
258.452	239.94
258.685	204.94
258.918	219.94
259.151	239.94
259.383	240.94
259.616	247.94
259.849	241.94
260.081	266.94
260.314	280.94
260.547	300.94
260.779	260.94
261.012	269.94
261.244	253.94
261.477	244.94
261.71	223.94
261.942	260.94
262.175	260.94
262.407	245.94
262.64	247.94
262.872	242.94
263.105	221.94
263.337	234.94
263.57	220.94
263.802	230.94
264.035	230.94
264.267	230.94
264.499	228.94
264.732	222.94
264.964	240.94
265.197	229.94
265.429	219.94
265.661	245.94
265.894	223.94
266.126	225.94
266.358	228.94
266.591	232.94
266.823	249.94
267.055	243.94
267.287	247.94
267.52	240.94
267.752	231.94
267.984	244.94
268.216	255.94
268.448	257.94
268.681	261.94
268.913	286.94
269.145	287.94
269.377	316.94
269.609	305.94
269.841	297.94
270.073	291.94
270.306	313.94
270.538	331.94
270.77	338.94
271.002	322.94
271.234	336.94
271.466	335.94
271.698	351.94
271.93	358.94
272.162	341.94
272.394	332.94
272.626	343.94
272.858	326.94
273.09	313.94
273.322	299.94
273.553	287.94
273.785	298.94
274.017	307.94
274.249	293.94
274.481	293.94
274.713	291.94
274.945	288.94
275.176	274.94
275.408	291.94
275.64	290.94
275.872	288.94
276.104	299.94
276.335	291.94
276.567	287.94
276.799	312.94
277.031	325.94
277.262	367.94
277.494	339.94
277.726	311.94
277.957	324.94
278.189	289.94
278.421	305.94
278.652	300.94
278.884	302.94
279.115	305.94
279.347	288.94
279.579	293.94
279.81	286.94
280.042	288.94
280.273	266.94
280.505	291.94
280.736	286.94
280.968	302.94
281.199	278.94
281.431	276.94
281.662	304.94
281.894	285.94
282.125	300.94
282.356	315.94
282.588	309.94
282.819	337.94
283.051	303.94
283.282	293.94
283.513	312.94
283.745	308.94
283.976	305.94
284.207	320.94
284.439	303.94
284.67	291.94
284.901	284.94
285.132	296.94
285.364	303.94
285.595	296.94
285.826	291.94
286.057	317.94
286.288	285.94
286.52	303.94
286.751	308.94
286.982	281.94
287.213	292.94
287.444	305.94
287.675	304.94
287.906	307.94
288.138	325.94
288.369	335.94
288.6	336.94
288.831	320.94
289.062	312.94
289.293	307.94
289.524	310.94
289.755	307.94
289.986	307.94
290.217	306.94
290.448	312.94
290.679	313.94
290.91	295.94
291.141	320.94
291.371	309.94
291.602	321.94
291.833	312.94
292.064	325.94
292.295	319.94
292.526	312.94
292.757	320.94
292.987	319.94
293.218	314.94
293.449	289.94
293.68	291.94
293.91	299.94
294.141	309.94
294.372	291.94
294.603	321.94
294.833	318.94
295.064	308.94
295.295	312.94
295.525	312.94
295.756	300.94
295.987	328.94
296.217	349.94
296.448	377.94
296.679	320.94
296.909	316.94
297.14	314.94
297.37	324.94
297.601	310.94
297.831	333.94
298.062	315.94
298.292	323.94
298.523	329.94
298.753	337.94
298.984	341.94
299.214	316.94
299.445	328.94
299.675	315.94
299.905	338.94
300.136	348.94
300.366	333.94
300.597	329.94
300.827	339.94
301.057	336.94
301.288	342.94
301.518	342.94
301.748	346.94
301.979	353.94
302.209	341.94
302.439	326.94
302.669	351.94
302.9	332.94
303.13	348.94
303.36	347.94
303.59	367.94
303.82	363.94
304.051	358.94
304.281	358.94
304.511	360.94
304.741	345.94
304.971	357.94
305.201	345.94
305.431	372.94
305.661	354.94
305.891	335.94
306.121	351.94
306.352	332.94
306.582	335.94
306.812	344.94
307.042	351.94
307.272	355.94
307.502	347.94
307.731	360.94
307.961	363.94
308.191	367.94
308.421	369.94
308.651	368.94
308.881	373.94
309.111	358.94
309.341	360.94
309.571	378.94
309.8	393.94
310.03	380.94
310.26	398.94
310.49	427.94
310.72	423.94
310.949	445.94
311.179	431.94
311.409	426.94
311.639	397.94
311.868	397.94
312.098	405.94
312.328	407.94
312.557	441.94
312.787	432.94
313.017	438.94
313.246	414.94
313.476	390.94
313.706	398.94
313.935	421.94
314.165	418.94
314.394	435.94
314.624	429.94
314.853	430.94
315.083	401.94
315.312	391.94
315.542	394.94
315.771	392.94
316.001	372.94
316.23	401.94
316.46	409.94
316.689	401.94
316.919	406.94
317.148	419.94
317.377	432.94
317.607	395.94
317.836	419.94
318.065	397.94
318.295	405.94
318.524	388.94
318.753	380.94
318.983	373.94
319.212	401.94
319.441	429.94
319.67	420.94
319.9	410.94
320.129	404.94
320.358	411.94
320.587	423.94
320.816	424.94
321.046	412.94
321.275	426.94
321.504	413.94
321.733	408.94
321.962	460.94
322.191	454.94
322.42	470.94
322.649	476.94
322.878	510.94
323.108	498.94
323.337	524.94
323.566	545.94
323.795	565.94
324.024	653.94
324.253	796.94
324.482	1087.94
324.71	1735.94
324.939	2466.94
325.168	2122.94
325.397	1095.94
325.626	743.94
325.855	618.94
326.084	585.94
326.313	555.94
326.542	569.94
326.77	605.94
326.999	715.94
327.228	987.94
327.457	1555.94
327.686	1887.94
327.914	1256.94
328.143	787.94
328.372	697.94
328.6	644.94
328.829	629.94
329.058	628.94
329.287	634.94
329.515	603.94
329.744	573.94
329.972	530.94
330.201	569.94
330.43	602.94
330.658	614.94
330.887	671.94
331.115	643.94
331.344	554.94
331.572	543.94
331.801	537.94
332.03	524.94
332.258	497.94
332.486	495.94
332.715	469.94
332.943	490.94
333.172	476.94
333.4	487.94
333.629	472.94
333.857	502.94
334.085	517.94
334.314	526.94
334.542	537.94
334.771	566.94
334.999	516.94
335.227	471.94
335.455	464.94
335.684	461.94
335.912	461.94
336.14	475.94
336.369	472.94
336.597	473.94
336.825	480.94
337.053	451.94
337.281	473.94
337.51	460.94
337.738	470.94
337.966	442.94
338.194	461.94
338.422	454.94
338.65	470.94
338.878	457.94
339.106	437.94
339.334	464.94
339.562	456.94
339.79	460.94
340.018	445.94
340.246	443.94
340.474	471.94
340.702	466.94
340.93	442.94
341.158	449.94
341.386	459.94
341.614	455.94
341.842	444.94
342.07	459.94
342.298	441.94
342.526	424.94
342.754	433.94
342.981	428.94
343.209	417.94
343.437	438.94
343.665	436.94
343.893	451.94
344.12	443.94
344.348	465.94
344.576	439.94
344.804	435.94
345.031	451.94
345.259	465.94
345.487	454.94
345.714	458.94
345.942	446.94
346.17	444.94
346.397	427.94
346.625	444.94
346.853	433.94
347.08	423.94
347.308	436.94
347.535	434.94
347.763	457.94
347.99	457.94
348.218	454.94
348.445	458.94
348.673	434.94
348.9	421.94
349.128	425.94
349.355	408.94
349.583	427.94
349.81	419.94
350.037	412.94
350.265	391.94
350.492	412.94
350.72	403.94
350.947	435.94
351.174	436.94
351.402	460.94
351.629	452.94
351.856	435.94
352.083	440.94
352.311	453.94
352.538	453.94
352.765	452.94
352.992	448.94
353.22	431.94
353.447	448.94
353.674	417.94
353.901	409.94
354.128	401.94
354.355	399.94
354.583	387.94
354.81	388.94
355.037	401.94
355.264	417.94
355.491	397.94
355.718	408.94
355.945	386.94
356.172	377.94
356.399	384.94
356.626	395.94
356.853	381.94
357.08	400.94
357.307	382.94
357.534	391.94
357.761	385.94
357.988	385.94
358.215	388.94
358.441	385.94
358.668	403.94
358.895	406.94
359.122	407.94
359.349	404.94
359.576	427.94
359.802	435.94
360.029	479.94
360.256	481.94
360.483	447.94
360.709	439.94
360.936	409.94
361.163	438.94
361.39	432.94
361.616	439.94
361.843	418.94
362.07	417.94
362.296	401.94
362.523	416.94
362.749	441.94
362.976	415.94
363.203	413.94
363.429	401.94
363.656	405.94
363.882	409.94
364.109	409.94
364.335	392.94
364.562	394.94
364.788	404.94
365.015	420.94
365.241	406.94
365.468	399.94
365.694	425.94
365.92	431.94
366.147	400.94
366.373	375.94
366.599	397.94
366.826	375.94
367.052	388.94
367.278	390.94
367.505	395.94
367.731	410.94
367.957	403.94
368.184	397.94
368.41	419.94
368.636	405.94
368.862	427.94
369.089	396.94
369.315	379.94
369.541	409.94
369.767	414.94
369.993	403.94
370.219	412.94
370.445	383.94
370.672	387.94
370.898	384.94
371.124	373.94
371.35	380.94
371.576	394.94
371.802	381.94
372.028	396.94
372.254	388.94
372.48	402.94
372.706	391.94
372.932	392.94
373.158	401.94
373.384	403.94
373.61	413.94
373.835	393.94
374.061	383.94
374.287	390.94
374.513	396.94
374.739	405.94
374.965	379.94
375.191	387.94
375.416	392.94
375.642	374.94
375.868	398.94
376.094	391.94
376.319	392.94
376.545	411.94
376.771	379.94
376.997	385.94
377.222	390.94
377.448	377.94
377.674	371.94
377.899	399.94
378.125	393.94
378.35	372.94
378.576	384.94
378.802	389.94
379.027	375.94
379.253	401.94
379.478	389.94
379.704	389.94
379.929	388.94
380.155	384.94
380.38	381.94
380.606	401.94
380.831	370.94
381.057	383.94
381.282	386.94
381.507	389.94
381.733	372.94
381.958	375.94
382.184	410.94
382.409	385.94
382.634	392.94
382.86	385.94
383.085	385.94
383.31	399.94
383.535	400.94
383.761	389.94
383.986	391.94
384.211	403.94
384.436	391.94
384.662	426.94
384.887	405.94
385.112	392.94
385.337	409.94
385.562	406.94
385.787	428.94
386.013	419.94
386.238	448.94
386.463	415.94
386.688	429.94
386.913	413.94
387.138	396.94
387.363	419.94
387.588	413.94
387.813	400.94
388.038	391.94
388.263	397.94
388.488	390.94
388.713	403.94
388.938	410.94
389.163	420.94
389.387	413.94
389.612	403.94
389.837	409.94
390.062	411.94
390.287	418.94
390.512	399.94
390.736	401.94
390.961	408.94
391.186	417.94
391.411	411.94
391.636	402.94
391.86	423.94
392.085	411.94
392.31	432.94
392.534	413.94
392.759	408.94
392.984	393.94
393.208	401.94
393.433	411.94
393.658	412.94
393.882	413.94
394.107	424.94
394.331	421.94
394.556	397.94
394.78	402.94
395.005	412.94
395.229	410.94
395.454	423.94
395.678	398.94
395.903	438.94
396.127	466.94
396.352	452.94
396.576	441.94
396.801	417.94
397.025	427.94
397.249	440.94
397.474	420.94
397.698	422.94
397.922	464.94
398.147	444.94
398.371	453.94
398.595	454.94
398.82	457.94
399.044	469.94
399.268	465.94
399.492	496.94
399.717	521.94
399.941	526.94
400.165	571.94
400.389	579.94
400.613	529.94
400.837	453.94
401.062	469.94
401.286	471.94
401.51	470.94
401.734	448.94
401.958	455.94
402.182	460.94
402.406	472.94
402.63	487.94
402.854	460.94
403.078	465.94
403.302	488.94
403.526	461.94
403.75	467.94
403.974	455.94
404.198	472.94
404.422	459.94
404.645	483.94
404.869	513.94
405.093	517.94
405.317	548.94
405.541	584.94
405.765	539.94
405.988	503.94
406.212	520.94
406.436	542.94
406.66	545.94
406.883	529.94
407.107	540.94
407.331	589.94
407.555	627.94
407.778	641.94
408.002	577.94
408.226	521.94
408.449	518.94
408.673	525.94
408.896	553.94
409.12	596.94
409.344	550.94
409.567	509.94
409.791	519.94
410.014	466.94
410.238	493.94
410.461	487.94
410.685	482.94
410.908	482.94
411.132	505.94
411.355	569.94
411.578	540.94
411.802	478.94
412.025	465.94
412.249	506.94
412.472	483.94
412.695	534.94
412.919	538.94
413.142	498.94
413.365	482.94
413.589	461.94
413.812	441.94
414.035	463.94
414.258	451.94
414.482	459.94
414.705	441.94
414.928	447.94
415.151	449.94
415.374	428.94
415.597	447.94
415.821	439.94
416.044	451.94
416.267	441.94
416.49	448.94
416.713	455.94
416.936	448.94
417.159	450.94
417.382	439.94
417.605	448.94
417.828	458.94
418.051	472.94
418.274	460.94
418.497	455.94
418.72	462.94
418.943	461.94
419.166	464.94
419.389	502.94
419.611	501.94
419.834	480.94
420.057	461.94
420.28	493.94
420.503	485.94
420.726	489.94
420.948	496.94
421.171	541.94
421.394	563.94
421.617	536.94
421.839	458.94
422.062	499.94
422.285	508.94
422.507	535.94
422.73	611.94
422.953	601.94
423.175	530.94
423.398	520.94
423.621	496.94
423.843	502.94
424.066	503.94
424.288	530.94
424.511	524.94
424.733	601.94
424.956	667.94
425.178	652.94
425.401	674.94
425.623	678.94
425.846	549.94
426.068	542.94
426.291	517.94
426.513	521.94
426.735	532.94
426.958	555.94
427.18	661.94
427.402	775.94
427.625	886.94
427.847	774.94
428.069	654.94
428.292	581.94
428.514	522.94
428.736	499.94
428.958	480.94
429.181	487.94
429.403	490.94
429.625	471.94
429.847	505.94
430.069	589.94
430.292	591.94
430.514	515.94
430.736	473.94
430.958	471.94
431.18	440.94
431.402	469.94
431.624	407.94
431.846	421.94
432.068	448.94
432.29	456.94
432.512	434.94
432.734	437.94
432.956	456.94
433.178	466.94
433.4	477.94
433.622	459.94
433.844	453.94
434.066	441.94
434.287	466.94
434.509	428.94
434.731	456.94
434.953	459.94
435.175	475.94
435.397	498.94
435.618	522.94
435.84	571.94
436.062	637.94
436.284	716.94
436.505	595.94
436.727	544.94
436.949	511.94
437.17	508.94
437.392	462.94
437.614	502.94
437.835	531.94
438.057	642.94
438.278	744.94
438.5	693.94
438.721	799.94
438.943	752.94
439.165	597.94
439.386	539.94
439.608	531.94
439.829	530.94
440.05	575.94
440.272	616.94
440.493	541.94
440.715	518.94
440.936	505.94
441.158	487.94
441.379	469.94
441.6	519.94
441.822	525.94
442.043	566.94
442.264	644.94
442.486	691.94
442.707	581.94
442.928	543.94
443.149	576.94
443.371	546.94
443.592	618.94
443.813	691.94
444.034	738.94
444.255	626.94
444.476	568.94
444.698	521.94
444.919	539.94
445.14	608.94
445.361	573.94
445.582	580.94
445.803	641.94
446.024	719.94
446.245	755.94
446.466	676.94
446.687	571.94
446.908	549.94
447.129	509.94
447.35	472.94
447.571	485.94
447.792	465.94
448.013	463.94
448.234	481.94
448.455	569.94
448.675	682.94
448.896	781.94
449.117	675.94
449.338	634.94
449.559	723.94
449.779	820.94
450	670.94
450.221	552.94
450.442	515.94
450.662	470.94
450.883	495.94
451.104	505.94
451.324	481.94
451.545	478.94
451.766	419.94
451.986	433.94
452.207	416.94
452.428	423.94
452.648	435.94
452.869	425.94
453.089	431.94
453.31	433.94
453.53	429.94
453.751	443.94
453.971	452.94
454.192	447.94
454.412	468.94
454.633	422.94
454.853	423.94
455.073	418.94
455.294	450.94
455.514	517.94
455.734	508.94
455.955	420.94
456.175	428.94
456.395	389.94
456.616	391.94
456.836	410.94
457.056	397.94
457.276	390.94
457.497	389.94
457.717	383.94
457.937	426.94
458.157	412.94
458.377	397.94
458.598	432.94
458.818	526.94
459.038	581.94
459.258	602.94
459.478	512.94
459.698	454.94
459.918	413.94
460.138	435.94
460.358	443.94
460.578	432.94
460.798	442.94
461.018	452.94
461.238	453.94
461.458	439.94
461.678	422.94
461.898	444.94
462.118	452.94
462.338	455.94
462.558	444.94
462.777	466.94
462.997	457.94
463.217	463.94
463.437	472.94
463.657	451.94
463.876	458.94
464.096	458.94
464.316	455.94
464.536	473.94
464.755	487.94
464.975	480.94
465.195	532.94
465.414	600.94
465.634	511.94
465.854	458.94
466.073	476.94
466.293	436.94
466.512	423.94
466.732	421.94
466.951	406.94
467.171	433.94
467.391	441.94
467.61	465.94
467.829	433.94
468.049	424.94
468.268	433.94
468.488	427.94
468.707	427.94
468.927	421.94
469.146	423.94
469.365	392.94
469.585	416.94
469.804	427.94
470.023	434.94
470.243	439.94
470.462	435.94
470.681	458.94
470.901	444.94
471.12	453.94
471.339	436.94
471.558	443.94
471.777	434.94
471.997	425.94
472.216	447.94
472.435	457.94
472.654	448.94
472.873	429.94
473.092	412.94
473.311	441.94
473.53	436.94
473.749	436.94
473.968	486.94
474.187	603.94
474.406	637.94
474.625	492.94
474.844	468.94
475.063	444.94
475.282	451.94
475.501	435.94
475.72	439.94
475.939	451.94
476.158	442.94
476.377	454.94
476.596	444.94
476.814	443.94
477.033	459.94
477.252	462.94
477.471	458.94
477.69	471.94
477.908	487.94
478.127	464.94
478.346	463.94
478.564	459.94
478.783	464.94
479.002	486.94
479.22	483.94
479.439	485.94
479.658	520.94
479.876	517.94
480.095	552.94
480.313	553.94
480.532	544.94
480.751	545.94
480.969	552.94
481.188	571.94
481.406	652.94
481.624	549.94
481.843	545.94
482.061	538.94
482.28	509.94
482.498	496.94
482.717	499.94
482.935	523.94
483.153	516.94
483.372	526.94
483.59	533.94
483.808	519.94
484.027	503.94
484.245	512.94
484.463	519.94
484.681	529.94
484.9	522.94
485.118	503.94
485.336	531.94
485.554	522.94
485.772	542.94
485.99	510.94
486.209	537.94
486.427	559.94
486.645	553.94
486.863	562.94
487.081	571.94
487.299	545.94
487.517	571.94
487.735	549.94
487.953	547.94
488.171	559.94
488.389	569.94
488.607	561.94
488.825	565.94
489.043	549.94
489.261	560.94
489.479	563.94
489.696	578.94
489.914	579.94
490.132	571.94
490.35	586.94
490.568	592.94
490.786	603.94
491.003	595.94
491.221	604.94
491.439	615.94
491.657	620.94
491.874	643.94
492.092	668.94
492.31	634.94
492.527	654.94
492.745	651.94
492.963	652.94
493.18	658.94
493.398	664.94
493.615	667.94
493.833	661.94
494.05	665.94
494.268	668.94
494.485	650.94
494.703	661.94
494.92	672.94
495.138	676.94
495.355	667.94
495.573	655.94
495.79	668.94
496.008	674.94
496.225	639.94
496.442	651.94
496.66	654.94
496.877	652.94
497.094	677.94
497.312	690.94
497.529	671.94
497.746	683.94
497.963	686.94
498.181	719.94
498.398	709.94
498.615	738.94
498.832	740.94
499.049	728.94
499.267	747.94
499.484	751.94
499.701	797.94
499.918	796.94
500.135	819.94
500.352	853.94
500.569	872.94
500.786	853.94
501.003	839.94
501.22	819.94
501.437	810.94
501.654	821.94
501.871	790.94
