Data from 1989.PennyLincolnUp.Lamp.En5.5.200Scan.071819.P2_HRD10591_17-23-56-972.txt Node
Date: Thu Jul 18 17:23:56 EDT 2019
User: cochatt
Spectrometer: HR+D1059
Trigger mode: 1
Integration Time (sec): 1.000000E-1
Scans to average: 1
Electric dark correction enabled: true
Nonlinearity correction enabled: false
Boxcar width: 0
XAxis mode: Wavelengths
Number of Pixels in Spectrum: 2048
>>>>>Begin Spectral Data<<<<<
223.165	-18.88
223.4	-18.88
223.635	-18.88
223.869	-18.88
224.104	-5.88
224.338	-10.88
224.573	-15.88
224.808	-1.88
225.042	-20.88
225.277	-9.88
225.511	-7.88
225.746	-6.88
225.98	0.12
226.215	10.12
226.449	15.12
226.683	33.12
226.918	32.12
227.152	27.12
227.387	38.12
227.621	17.12
227.856	36.12
228.09	51.12
228.324	48.12
228.559	59.12
228.793	57.12
229.027	98.12
229.262	111.12
229.496	102.12
229.73	128.12
229.964	169.12
230.199	123.12
230.433	126.12
230.667	114.12
230.901	109.12
231.136	123.12
231.37	114.12
231.604	109.12
231.838	107.12
232.072	127.12
232.306	117.12
232.541	123.12
232.775	122.12
233.009	118.12
233.243	112.12
233.477	128.12
233.711	108.12
233.945	113.12
234.179	114.12
234.413	114.12
234.647	120.12
234.881	113.12
235.115	105.12
235.349	124.12
235.583	126.12
235.817	125.12
236.051	133.12
236.285	115.12
236.519	136.12
236.753	128.12
236.987	147.12
237.221	201.12
237.455	239.12
237.689	202.12
237.922	158.12
238.156	147.12
238.39	132.12
238.624	124.12
238.858	138.12
239.091	104.12
239.325	113.12
239.559	134.12
239.793	131.12
240.027	131.12
240.26	143.12
240.494	154.12
240.728	152.12
240.961	142.12
241.195	160.12
241.429	147.12
241.662	139.12
241.896	128.12
242.13	122.12
242.363	140.12
242.597	132.12
242.83	132.12
243.064	133.12
243.298	139.12
243.531	135.12
243.765	140.12
243.998	140.12
244.232	143.12
244.465	146.12
244.699	143.12
244.932	140.12
245.166	145.12
245.399	159.12
245.633	153.12
245.866	145.12
246.099	155.12
246.333	170.12
246.566	158.12
246.8	164.12
247.033	158.12
247.266	150.12
247.5	171.12
247.733	157.12
247.966	171.12
248.2	171.12
248.433	157.12
248.666	182.12
248.899	189.12
249.133	193.12
249.366	230.12
249.599	206.12
249.832	192.12
250.066	200.12
250.299	184.12
250.532	201.12
250.765	194.12
250.998	235.12
251.231	242.12
251.465	235.12
251.698	213.12
251.931	208.12
252.164	210.12
252.397	193.12
252.63	212.12
252.863	208.12
253.096	225.12
253.329	234.12
253.562	247.12
253.795	247.12
254.028	231.12
254.261	227.12
254.494	231.12
254.727	276.12
254.96	284.12
255.193	285.12
255.426	263.12
255.659	263.12
255.892	258.12
256.124	213.12
256.357	227.12
256.59	232.12
256.823	217.12
257.056	211.12
257.289	232.12
257.521	222.12
257.754	228.12
257.987	231.12
258.22	220.12
258.452	232.12
258.685	229.12
258.918	212.12
259.151	222.12
259.383	230.12
259.616	246.12
259.849	242.12
260.081	246.12
260.314	267.12
260.547	269.12
260.779	263.12
261.012	250.12
261.244	248.12
261.477	259.12
261.71	245.12
261.942	219.12
262.175	230.12
262.407	241.12
262.64	212.12
262.872	228.12
263.105	214.12
263.337	235.12
263.57	224.12
263.802	231.12
264.035	222.12
264.267	217.12
264.499	214.12
264.732	235.12
264.964	225.12
265.197	225.12
265.429	238.12
265.661	229.12
265.894	216.12
266.126	224.12
266.358	228.12
266.591	218.12
266.823	230.12
267.055	242.12
267.287	240.12
267.52	237.12
267.752	233.12
267.984	230.12
268.216	241.12
268.448	243.12
268.681	264.12
268.913	262.12
269.145	267.12
269.377	296.12
269.609	288.12
269.841	270.12
270.073	265.12
270.306	291.12
270.538	335.12
270.77	325.12
271.002	307.12
271.234	304.12
271.466	297.12
271.698	329.12
271.93	348.12
272.162	349.12
272.394	329.12
272.626	352.12
272.858	312.12
273.09	308.12
273.322	291.12
273.553	278.12
273.785	305.12
274.017	304.12
274.249	292.12
274.481	271.12
274.713	285.12
274.945	297.12
275.176	265.12
275.408	281.12
275.64	269.12
275.872	276.12
276.104	280.12
276.335	277.12
276.567	283.12
276.799	308.12
277.031	322.12
277.262	334.12
277.494	327.12
277.726	322.12
277.957	295.12
278.189	297.12
278.421	275.12
278.652	284.12
278.884	275.12
279.115	265.12
279.347	280.12
279.579	265.12
279.81	282.12
280.042	272.12
280.273	269.12
280.505	272.12
280.736	277.12
280.968	265.12
281.199	281.12
281.431	270.12
281.662	278.12
281.894	290.12
282.125	297.12
282.356	306.12
282.588	321.12
282.819	333.12
283.051	288.12
283.282	283.12
283.513	288.12
283.745	298.12
283.976	301.12
284.207	294.12
284.439	309.12
284.67	284.12
284.901	286.12
285.132	285.12
285.364	298.12
285.595	296.12
285.826	301.12
286.057	305.12
286.288	290.12
286.52	291.12
286.751	277.12
286.982	294.12
287.213	301.12
287.444	290.12
287.675	305.12
287.906	322.12
288.138	313.12
288.369	326.12
288.6	307.12
288.831	308.12
289.062	320.12
289.293	306.12
289.524	318.12
289.755	288.12
289.986	286.12
290.217	292.12
290.448	316.12
290.679	295.12
290.91	302.12
291.141	307.12
291.371	304.12
291.602	317.12
291.833	290.12
292.064	302.12
292.295	289.12
292.526	307.12
292.757	306.12
292.987	300.12
293.218	306.12
293.449	304.12
293.68	314.12
293.91	306.12
294.141	300.12
294.372	298.12
294.603	298.12
294.833	310.12
295.064	295.12
295.295	310.12
295.525	309.12
295.756	311.12
295.987	318.12
296.217	317.12
296.448	344.12
296.679	321.12
296.909	288.12
297.14	311.12
297.37	308.12
297.601	318.12
297.831	320.12
298.062	304.12
298.292	321.12
298.523	299.12
298.753	311.12
298.984	291.12
299.214	316.12
299.445	310.12
299.675	336.12
299.905	316.12
300.136	327.12
300.366	325.12
300.597	331.12
300.827	310.12
301.057	330.12
301.288	360.12
301.518	341.12
301.748	352.12
301.979	336.12
302.209	337.12
302.439	345.12
302.669	362.12
302.9	332.12
303.13	330.12
303.36	352.12
303.59	356.12
303.82	353.12
304.051	357.12
304.281	357.12
304.511	343.12
304.741	341.12
304.971	329.12
305.201	333.12
305.431	354.12
305.661	329.12
305.891	349.12
306.121	345.12
306.352	365.12
306.582	358.12
306.812	331.12
307.042	340.12
307.272	341.12
307.502	355.12
307.731	334.12
307.961	358.12
308.191	357.12
308.421	344.12
308.651	350.12
308.881	352.12
309.111	364.12
309.341	353.12
309.571	364.12
309.8	361.12
310.03	393.12
310.26	384.12
310.49	372.12
310.72	412.12
310.949	410.12
311.179	416.12
311.409	395.12
311.639	392.12
311.868	375.12
312.098	382.12
312.328	422.12
312.557	426.12
312.787	421.12
313.017	416.12
313.246	388.12
313.476	375.12
313.706	399.12
313.935	407.12
314.165	400.12
314.394	419.12
314.624	426.12
314.853	410.12
315.083	386.12
315.312	410.12
315.542	380.12
315.771	394.12
316.001	393.12
316.23	392.12
316.46	396.12
316.689	393.12
316.919	395.12
317.148	384.12
317.377	414.12
317.607	394.12
317.836	407.12
318.065	397.12
318.295	402.12
318.524	384.12
318.753	391.12
318.983	374.12
319.212	379.12
319.441	402.12
319.67	408.12
319.9	383.12
320.129	379.12
320.358	410.12
320.587	402.12
320.816	390.12
321.046	429.12
321.275	413.12
321.504	402.12
321.733	422.12
321.962	412.12
322.191	430.12
322.42	443.12
322.649	448.12
322.878	456.12
323.108	491.12
323.337	500.12
323.566	502.12
323.795	569.12
324.024	607.12
324.253	729.12
324.482	1060.12
324.71	1604.12
324.939	2234.12
325.168	1990.12
325.397	1040.12
325.626	703.12
325.855	576.12
326.084	542.12
326.313	532.12
326.542	552.12
326.77	588.12
326.999	683.12
327.228	921.12
327.457	1402.12
327.686	1744.12
327.914	1132.12
328.143	753.12
328.372	632.12
328.6	606.12
328.829	601.12
329.058	596.12
329.287	582.12
329.515	571.12
329.744	520.12
329.972	498.12
330.201	499.12
330.43	540.12
330.658	549.12
330.887	617.12
331.115	624.12
331.344	532.12
331.572	507.12
331.801	524.12
332.03	507.12
332.258	485.12
332.486	471.12
332.715	429.12
332.943	443.12
333.172	462.12
333.4	443.12
333.629	455.12
333.857	478.12
334.085	463.12
334.314	470.12
334.542	486.12
334.771	443.12
334.999	468.12
335.227	458.12
335.455	474.12
335.684	442.12
335.912	449.12
336.14	435.12
336.369	448.12
336.597	452.12
336.825	460.12
337.053	450.12
337.281	434.12
337.51	455.12
337.738	444.12
337.966	435.12
338.194	462.12
338.422	456.12
338.65	440.12
338.878	440.12
339.106	437.12
339.334	430.12
339.562	434.12
339.79	441.12
340.018	450.12
340.246	454.12
340.474	459.12
340.702	442.12
340.93	431.12
341.158	415.12
341.386	430.12
341.614	440.12
341.842	421.12
342.07	422.12
342.298	437.12
342.526	418.12
342.754	417.12
342.981	411.12
343.209	401.12
343.437	417.12
343.665	430.12
343.893	441.12
344.12	456.12
344.348	441.12
344.576	444.12
344.804	452.12
345.031	436.12
345.259	461.12
345.487	454.12
345.714	416.12
345.942	434.12
346.17	443.12
346.397	407.12
346.625	422.12
346.853	442.12
347.08	424.12
347.308	428.12
347.535	431.12
347.763	438.12
347.99	442.12
348.218	421.12
348.445	429.12
348.673	422.12
348.9	418.12
349.128	433.12
349.355	416.12
349.583	427.12
349.81	423.12
350.037	400.12
350.265	406.12
350.492	409.12
350.72	424.12
350.947	422.12
351.174	435.12
351.402	423.12
351.629	416.12
351.856	408.12
352.083	408.12
352.311	438.12
352.538	427.12
352.765	410.12
352.992	414.12
353.22	403.12
353.447	403.12
353.674	418.12
353.901	389.12
354.128	407.12
354.355	384.12
354.583	403.12
354.81	402.12
355.037	417.12
355.264	398.12
355.491	374.12
355.718	360.12
355.945	379.12
356.172	396.12
356.399	391.12
356.626	388.12
356.853	379.12
357.08	377.12
357.307	369.12
357.534	398.12
357.761	363.12
357.988	376.12
358.215	380.12
358.441	394.12
358.668	400.12
358.895	394.12
359.122	405.12
359.349	379.12
359.576	410.12
359.802	434.12
360.029	462.12
360.256	478.12
360.483	452.12
360.709	410.12
360.936	429.12
361.163	407.12
361.39	424.12
361.616	414.12
361.843	438.12
362.07	414.12
362.296	423.12
362.523	402.12
362.749	409.12
362.976	408.12
363.203	401.12
363.429	386.12
363.656	393.12
363.882	399.12
364.109	376.12
364.335	404.12
364.562	394.12
364.788	422.12
365.015	394.12
365.241	394.12
365.468	396.12
365.694	394.12
365.92	393.12
366.147	397.12
366.373	402.12
366.599	392.12
366.826	406.12
367.052	382.12
367.278	388.12
367.505	386.12
367.731	384.12
367.957	373.12
368.184	376.12
368.41	404.12
368.636	389.12
368.862	406.12
369.089	382.12
369.315	393.12
369.541	405.12
369.767	397.12
369.993	385.12
370.219	386.12
370.445	398.12
370.672	373.12
370.898	372.12
371.124	370.12
371.35	376.12
371.576	373.12
371.802	394.12
372.028	386.12
372.254	379.12
372.48	386.12
372.706	384.12
372.932	394.12
373.158	386.12
373.384	404.12
373.61	398.12
373.835	381.12
374.061	386.12
374.287	402.12
374.513	388.12
374.739	408.12
374.965	381.12
375.191	372.12
375.416	389.12
375.642	392.12
375.868	398.12
376.094	365.12
376.319	382.12
376.545	386.12
376.771	397.12
376.997	384.12
377.222	365.12
377.448	384.12
377.674	396.12
377.899	393.12
378.125	388.12
378.35	376.12
378.576	372.12
378.802	374.12
379.027	388.12
379.253	390.12
379.478	375.12
379.704	366.12
379.929	378.12
380.155	364.12
380.38	376.12
380.606	380.12
380.831	377.12
381.057	388.12
381.282	382.12
381.507	382.12
381.733	399.12
381.958	396.12
382.184	380.12
382.409	377.12
382.634	394.12
382.86	387.12
383.085	400.12
383.31	385.12
383.535	398.12
383.761	382.12
383.986	389.12
384.211	385.12
384.436	387.12
384.662	381.12
384.887	411.12
385.112	387.12
385.337	417.12
385.562	398.12
385.787	386.12
386.013	429.12
386.238	402.12
386.463	417.12
386.688	408.12
386.913	414.12
387.138	407.12
387.363	396.12
387.588	409.12
387.813	399.12
388.038	413.12
388.263	404.12
388.488	422.12
388.713	430.12
388.938	428.12
389.163	394.12
389.387	426.12
389.612	413.12
389.837	414.12
390.062	403.12
390.287	411.12
390.512	396.12
390.736	409.12
390.961	406.12
391.186	404.12
391.411	390.12
391.636	399.12
391.86	417.12
392.085	416.12
392.31	407.12
392.534	438.12
392.759	417.12
392.984	410.12
393.208	421.12
393.433	402.12
393.658	396.12
393.882	405.12
394.107	416.12
394.331	404.12
394.556	404.12
394.78	402.12
395.005	419.12
395.229	416.12
395.454	416.12
395.678	401.12
395.903	424.12
396.127	438.12
396.352	448.12
396.576	430.12
396.801	420.12
397.025	393.12
397.249	413.12
397.474	423.12
397.698	419.12
397.922	449.12
398.147	460.12
398.371	458.12
398.595	459.12
398.82	446.12
399.044	452.12
399.268	460.12
399.492	496.12
399.717	485.12
399.941	522.12
400.165	548.12
400.389	573.12
400.613	517.12
400.837	470.12
401.062	455.12
401.286	466.12
401.51	446.12
401.734	469.12
401.958	460.12
402.182	430.12
402.406	460.12
402.63	476.12
402.854	466.12
403.078	421.12
403.302	473.12
403.526	471.12
403.75	456.12
403.974	461.12
404.198	440.12
404.422	458.12
404.645	452.12
404.869	488.12
405.093	500.12
405.317	530.12
405.541	546.12
405.765	502.12
405.988	494.12
406.212	462.12
406.436	534.12
406.66	525.12
406.883	524.12
407.107	544.12
407.331	596.12
407.555	657.12
407.778	632.12
408.002	581.12
408.226	528.12
408.449	515.12
408.673	529.12
408.896	541.12
409.12	600.12
409.344	562.12
409.567	510.12
409.791	504.12
410.014	468.12
410.238	467.12
410.461	478.12
410.685	473.12
410.908	511.12
411.132	516.12
411.355	548.12
411.578	545.12
411.802	492.12
412.025	459.12
412.249	473.12
412.472	462.12
412.695	474.12
412.919	457.12
413.142	445.12
413.365	436.12
413.589	445.12
413.812	439.12
414.035	448.12
414.258	440.12
414.482	456.12
414.705	446.12
414.928	443.12
415.151	421.12
415.374	433.12
415.597	438.12
415.821	429.12
416.044	436.12
416.267	442.12
416.49	435.12
416.713	452.12
416.936	456.12
417.159	417.12
417.382	451.12
417.605	430.12
417.828	454.12
418.051	475.12
418.274	442.12
418.497	452.12
418.72	434.12
418.943	446.12
419.166	448.12
419.389	460.12
419.611	478.12
419.834	453.12
420.057	461.12
420.28	437.12
420.503	448.12
420.726	446.12
420.948	457.12
421.171	532.12
421.394	550.12
421.617	486.12
421.839	452.12
422.062	480.12
422.285	463.12
422.507	521.12
422.73	589.12
422.953	594.12
423.175	516.12
423.398	466.12
423.621	507.12
423.843	498.12
424.066	519.12
424.288	516.12
424.511	532.12
424.733	579.12
424.956	654.12
425.178	646.12
425.401	619.12
425.623	657.12
425.846	551.12
426.068	514.12
426.291	522.12
426.513	529.12
426.735	504.12
426.958	561.12
427.18	644.12
427.402	753.12
427.625	832.12
427.847	737.12
428.069	621.12
428.292	544.12
428.514	514.12
428.736	511.12
428.958	483.12
429.181	500.12
429.403	470.12
429.625	483.12
429.847	500.12
430.069	570.12
430.292	585.12
430.514	524.12
430.736	495.12
430.958	480.12
431.18	448.12
431.402	461.12
431.624	432.12
431.846	438.12
432.068	422.12
432.29	454.12
432.512	446.12
432.734	446.12
432.956	452.12
433.178	471.12
433.4	460.12
433.622	450.12
433.844	450.12
434.066	450.12
434.287	418.12
434.509	426.12
434.731	452.12
434.953	446.12
435.175	464.12
435.397	486.12
435.618	504.12
435.84	560.12
436.062	658.12
436.284	731.12
436.505	591.12
436.727	534.12
436.949	492.12
437.17	478.12
437.392	469.12
437.614	480.12
437.835	520.12
438.057	618.12
438.278	701.12
438.5	708.12
438.721	810.12
438.943	722.12
439.165	587.12
439.386	551.12
439.608	530.12
439.829	539.12
440.05	540.12
440.272	592.12
440.493	574.12
440.715	516.12
440.936	473.12
441.158	471.12
441.379	484.12
441.6	489.12
441.822	503.12
442.043	545.12
442.264	624.12
442.486	660.12
442.707	565.12
442.928	530.12
443.149	536.12
443.371	556.12
443.592	601.12
443.813	652.12
444.034	729.12
444.255	613.12
444.476	546.12
444.698	524.12
444.919	516.12
445.14	612.12
445.361	575.12
445.582	569.12
445.803	601.12
446.024	692.12
446.245	704.12
446.466	655.12
446.687	568.12
446.908	536.12
447.129	508.12
447.35	491.12
447.571	469.12
447.792	445.12
448.013	484.12
448.234	499.12
448.455	548.12
448.675	624.12
448.896	742.12
449.117	624.12
449.338	600.12
449.559	717.12
449.779	811.12
450	642.12
450.221	547.12
450.442	508.12
450.662	452.12
450.883	446.12
451.104	482.12
451.324	468.12
451.545	443.12
451.766	449.12
451.986	423.12
452.207	421.12
452.428	437.12
452.648	424.12
452.869	404.12
453.089	429.12
453.31	448.12
453.53	448.12
453.751	405.12
453.971	408.12
454.192	447.12
454.412	432.12
454.633	414.12
454.853	426.12
455.073	410.12
455.294	448.12
455.514	533.12
455.734	502.12
455.955	436.12
456.175	388.12
456.395	378.12
456.616	396.12
456.836	397.12
457.056	383.12
457.276	406.12
457.497	378.12
457.717	383.12
457.937	402.12
458.157	435.12
458.377	424.12
458.598	441.12
458.818	505.12
459.038	590.12
459.258	611.12
459.478	458.12
459.698	436.12
459.918	448.12
460.138	436.12
460.358	449.12
460.578	426.12
460.798	438.12
461.018	454.12
461.238	429.12
461.458	427.12
461.678	445.12
461.898	444.12
462.118	442.12
462.338	422.12
462.558	445.12
462.777	441.12
462.997	469.12
463.217	483.12
463.437	468.12
463.657	480.12
463.876	474.12
464.096	463.12
464.316	441.12
464.536	461.12
464.755	460.12
464.975	475.12
465.195	525.12
465.414	594.12
465.634	514.12
465.854	467.12
466.073	460.12
466.293	424.12
466.512	446.12
466.732	414.12
466.951	434.12
467.171	435.12
467.391	412.12
467.61	451.12
467.829	445.12
468.049	434.12
468.268	421.12
468.488	432.12
468.707	402.12
468.927	399.12
469.146	392.12
469.365	411.12
469.585	414.12
469.804	434.12
470.023	419.12
470.243	448.12
470.462	436.12
470.681	434.12
470.901	454.12
471.12	452.12
471.339	440.12
471.558	451.12
471.777	439.12
471.997	404.12
472.216	422.12
472.435	423.12
472.654	418.12
472.873	424.12
473.092	406.12
473.311	420.12
473.53	417.12
473.749	446.12
473.968	476.12
474.187	579.12
474.406	604.12
474.625	484.12
474.844	460.12
475.063	452.12
475.282	448.12
475.501	429.12
475.72	444.12
475.939	432.12
476.158	430.12
476.377	454.12
476.596	436.12
476.814	460.12
477.033	456.12
477.252	461.12
477.471	452.12
477.69	448.12
477.908	474.12
478.127	467.12
478.346	470.12
478.564	467.12
478.783	468.12
479.002	486.12
479.22	489.12
479.439	512.12
479.658	502.12
479.876	520.12
480.095	514.12
480.313	531.12
480.532	532.12
480.751	510.12
480.969	518.12
481.188	534.12
481.406	534.12
481.624	517.12
481.843	513.12
482.061	501.12
482.28	514.12
482.498	477.12
482.717	496.12
482.935	512.12
483.153	507.12
483.372	514.12
483.59	502.12
483.808	501.12
484.027	480.12
484.245	488.12
484.463	511.12
484.681	511.12
484.9	509.12
485.118	537.12
485.336	504.12
485.554	522.12
485.772	525.12
485.99	532.12
486.209	514.12
486.427	538.12
486.645	536.12
486.863	564.12
487.081	562.12
487.299	543.12
487.517	526.12
487.735	540.12
487.953	549.12
488.171	540.12
488.389	548.12
488.607	553.12
488.825	547.12
489.043	555.12
489.261	547.12
489.479	547.12
489.696	539.12
489.914	563.12
490.132	553.12
490.35	544.12
490.568	560.12
490.786	566.12
491.003	577.12
491.221	577.12
491.439	583.12
491.657	616.12
491.874	616.12
492.092	631.12
492.31	618.12
492.527	612.12
492.745	611.12
492.963	591.12
493.18	618.12
493.398	615.12
493.615	632.12
493.833	625.12
494.05	622.12
494.268	631.12
494.485	620.12
494.703	628.12
494.92	635.12
495.138	611.12
495.355	645.12
495.573	652.12
495.79	637.12
496.008	627.12
496.225	649.12
496.442	636.12
496.66	654.12
496.877	662.12
497.094	621.12
497.312	658.12
497.529	678.12
497.746	662.12
497.963	653.12
498.181	696.12
498.398	690.12
498.615	703.12
498.832	738.12
499.049	704.12
499.267	735.12
499.484	735.12
499.701	781.12
499.918	784.12
500.135	811.12
500.352	836.12
500.569	832.12
500.786	846.12
501.003	826.12
501.22	816.12
501.437	819.12
501.654	808.12
501.871	782.12
