Data from 1989.PennyLincolnUp.Lamp.En5.5.200Scan.071819.P2_HRD10591_17-25-41-975.txt Node
Date: Thu Jul 18 17:25:41 EDT 2019
User: cochatt
Spectrometer: HR+D1059
Trigger mode: 1
Integration Time (sec): 1.000000E-1
Scans to average: 1
Electric dark correction enabled: true
Nonlinearity correction enabled: false
Boxcar width: 0
XAxis mode: Wavelengths
Number of Pixels in Spectrum: 2048
>>>>>Begin Spectral Data<<<<<
223.165	-18.56
223.4	-18.56
223.635	-18.56
223.869	-11.56
224.104	-19.56
224.338	-12.56
224.573	-7.56
224.808	-7.56
225.042	-15.56
225.277	-4.56
225.511	9.44
225.746	-12.56
225.98	10.44
226.215	2.44
226.449	12.44
226.683	18.44
226.918	25.44
227.152	31.44
227.387	30.44
227.621	30.44
227.856	41.44
228.09	39.44
228.324	59.44
228.559	54.44
228.793	77.44
229.027	125.44
229.262	103.44
229.496	112.44
229.73	146.44
229.964	160.44
230.199	125.44
230.433	130.44
230.667	116.44
230.901	121.44
231.136	116.44
231.37	120.44
231.604	137.44
231.838	116.44
232.072	118.44
232.306	107.44
232.541	111.44
232.775	117.44
233.009	105.44
233.243	124.44
233.477	113.44
233.711	110.44
233.945	121.44
234.179	118.44
234.413	113.44
234.647	130.44
234.881	114.44
235.115	138.44
235.349	128.44
235.583	123.44
235.817	126.44
236.051	124.44
236.285	136.44
236.519	122.44
236.753	125.44
236.987	152.44
237.221	188.44
237.455	257.44
237.689	230.44
237.922	154.44
238.156	131.44
238.39	145.44
238.624	135.44
238.858	126.44
239.091	125.44
239.325	132.44
239.559	130.44
239.793	131.44
240.027	141.44
240.26	149.44
240.494	160.44
240.728	154.44
240.961	173.44
241.195	155.44
241.429	148.44
241.662	138.44
241.896	122.44
242.13	142.44
242.363	135.44
242.597	131.44
242.83	146.44
243.064	142.44
243.298	150.44
243.531	132.44
243.765	151.44
243.998	141.44
244.232	155.44
244.465	163.44
244.699	165.44
244.932	150.44
245.166	153.44
245.399	153.44
245.633	151.44
245.866	149.44
246.099	156.44
246.333	144.44
246.566	173.44
246.8	158.44
247.033	165.44
247.266	157.44
247.5	169.44
247.733	178.44
247.966	177.44
248.2	182.44
248.433	178.44
248.666	195.44
248.899	198.44
249.133	224.44
249.366	208.44
249.599	229.44
249.832	189.44
250.066	184.44
250.299	187.44
250.532	203.44
250.765	216.44
250.998	268.44
251.231	261.44
251.465	244.44
251.698	252.44
251.931	219.44
252.164	202.44
252.397	224.44
252.63	228.44
252.863	221.44
253.096	241.44
253.329	253.44
253.562	243.44
253.795	246.44
254.028	230.44
254.261	234.44
254.494	263.44
254.727	275.44
254.96	316.44
255.193	314.44
255.426	282.44
255.659	257.44
255.892	259.44
256.124	264.44
256.357	282.44
256.59	268.44
256.823	248.44
257.056	231.44
257.289	253.44
257.521	234.44
257.754	227.44
257.987	238.44
258.22	245.44
258.452	244.44
258.685	229.44
258.918	229.44
259.151	241.44
259.383	259.44
259.616	244.44
259.849	254.44
260.081	256.44
260.314	281.44
260.547	285.44
260.779	288.44
261.012	254.44
261.244	260.44
261.477	259.44
261.71	255.44
261.942	241.44
262.175	261.44
262.407	257.44
262.64	253.44
262.872	230.44
263.105	231.44
263.337	238.44
263.57	227.44
263.802	247.44
264.035	219.44
264.267	210.44
264.499	253.44
264.732	244.44
264.964	259.44
265.197	232.44
265.429	232.44
265.661	240.44
265.894	228.44
266.126	228.44
266.358	241.44
266.591	240.44
266.823	240.44
267.055	247.44
267.287	267.44
267.52	245.44
267.752	251.44
267.984	249.44
268.216	256.44
268.448	263.44
268.681	249.44
268.913	265.44
269.145	278.44
269.377	289.44
269.609	295.44
269.841	299.44
270.073	303.44
270.306	337.44
270.538	354.44
270.77	351.44
271.002	357.44
271.234	340.44
271.466	324.44
271.698	348.44
271.93	365.44
272.162	363.44
272.394	374.44
272.626	329.44
272.858	343.44
273.09	312.44
273.322	309.44
273.553	305.44
273.785	308.44
274.017	305.44
274.249	316.44
274.481	292.44
274.713	290.44
274.945	292.44
275.176	278.44
275.408	301.44
275.64	287.44
275.872	285.44
276.104	292.44
276.335	296.44
276.567	299.44
276.799	326.44
277.031	342.44
277.262	354.44
277.494	356.44
277.726	333.44
277.957	324.44
278.189	304.44
278.421	296.44
278.652	286.44
278.884	296.44
279.115	278.44
279.347	286.44
279.579	280.44
279.81	286.44
280.042	293.44
280.273	315.44
280.505	290.44
280.736	283.44
280.968	282.44
281.199	303.44
281.431	286.44
281.662	317.44
281.894	288.44
282.125	304.44
282.356	318.44
282.588	332.44
282.819	346.44
283.051	328.44
283.282	288.44
283.513	305.44
283.745	301.44
283.976	309.44
284.207	316.44
284.439	307.44
284.67	307.44
284.901	310.44
285.132	314.44
285.364	295.44
285.595	304.44
285.826	301.44
286.057	306.44
286.288	313.44
286.52	293.44
286.751	294.44
286.982	312.44
287.213	313.44
287.444	321.44
287.675	306.44
287.906	329.44
288.138	318.44
288.369	329.44
288.6	330.44
288.831	305.44
289.062	318.44
289.293	299.44
289.524	314.44
289.755	316.44
289.986	325.44
290.217	310.44
290.448	313.44
290.679	300.44
290.91	304.44
291.141	303.44
291.371	311.44
291.602	321.44
291.833	315.44
292.064	313.44
292.295	294.44
292.526	316.44
292.757	304.44
292.987	309.44
293.218	310.44
293.449	316.44
293.68	289.44
293.91	304.44
294.141	306.44
294.372	314.44
294.603	310.44
294.833	316.44
295.064	308.44
295.295	312.44
295.525	333.44
295.756	325.44
295.987	334.44
296.217	342.44
296.448	366.44
296.679	340.44
296.909	313.44
297.14	322.44
297.37	314.44
297.601	302.44
297.831	315.44
298.062	320.44
298.292	340.44
298.523	339.44
298.753	332.44
298.984	316.44
299.214	332.44
299.445	337.44
299.675	314.44
299.905	341.44
300.136	324.44
300.366	337.44
300.597	337.44
300.827	325.44
301.057	329.44
301.288	347.44
301.518	331.44
301.748	337.44
301.979	333.44
302.209	359.44
302.439	375.44
302.669	348.44
302.9	353.44
303.13	345.44
303.36	362.44
303.59	358.44
303.82	383.44
304.051	365.44
304.281	346.44
304.511	339.44
304.741	348.44
304.971	354.44
305.201	331.44
305.431	336.44
305.661	338.44
305.891	347.44
306.121	346.44
306.352	356.44
306.582	354.44
306.812	357.44
307.042	337.44
307.272	358.44
307.502	365.44
307.731	346.44
307.961	356.44
308.191	351.44
308.421	351.44
308.651	362.44
308.881	371.44
309.111	373.44
309.341	374.44
309.571	387.44
309.8	384.44
310.03	388.44
310.26	407.44
310.49	389.44
310.72	420.44
310.949	416.44
311.179	460.44
311.409	414.44
311.639	429.44
311.868	400.44
312.098	435.44
312.328	427.44
312.557	434.44
312.787	456.44
313.017	448.44
313.246	443.44
313.476	412.44
313.706	399.44
313.935	408.44
314.165	424.44
314.394	455.44
314.624	414.44
314.853	420.44
315.083	422.44
315.312	396.44
315.542	395.44
315.771	418.44
316.001	421.44
316.23	390.44
316.46	398.44
316.689	416.44
316.919	411.44
317.148	411.44
317.377	423.44
317.607	409.44
317.836	409.44
318.065	404.44
318.295	401.44
318.524	390.44
318.753	414.44
318.983	399.44
319.212	405.44
319.441	419.44
319.67	426.44
319.9	416.44
320.129	424.44
320.358	432.44
320.587	427.44
320.816	442.44
321.046	419.44
321.275	429.44
321.504	428.44
321.733	423.44
321.962	460.44
322.191	448.44
322.42	466.44
322.649	487.44
322.878	508.44
323.108	516.44
323.337	555.44
323.566	565.44
323.795	609.44
324.024	666.44
324.253	838.44
324.482	1179.44
324.71	1760.44
324.939	2588.44
325.168	2310.44
325.397	1152.44
325.626	755.44
325.855	650.44
326.084	580.44
326.313	563.44
326.542	571.44
326.77	623.44
326.999	760.44
327.228	1038.44
327.457	1608.44
327.686	1948.44
327.914	1318.44
328.143	863.44
328.372	709.44
328.6	691.44
328.829	632.44
329.058	649.44
329.287	673.44
329.515	637.44
329.744	586.44
329.972	572.44
330.201	619.44
330.43	661.44
330.658	686.44
330.887	701.44
331.115	659.44
331.344	581.44
331.572	563.44
331.801	540.44
332.03	547.44
332.258	535.44
332.486	506.44
332.715	479.44
332.943	472.44
333.172	505.44
333.4	503.44
333.629	519.44
333.857	511.44
334.085	541.44
334.314	568.44
334.542	599.44
334.771	642.44
334.999	584.44
335.227	521.44
335.455	503.44
335.684	468.44
335.912	475.44
336.14	466.44
336.369	454.44
336.597	488.44
336.825	474.44
337.053	456.44
337.281	445.44
337.51	459.44
337.738	467.44
337.966	453.44
338.194	465.44
338.422	473.44
338.65	469.44
338.878	443.44
339.106	457.44
339.334	451.44
339.562	446.44
339.79	432.44
340.018	442.44
340.246	462.44
340.474	458.44
340.702	453.44
340.93	470.44
341.158	456.44
341.386	444.44
341.614	474.44
341.842	476.44
342.07	419.44
342.298	459.44
342.526	436.44
342.754	434.44
342.981	429.44
343.209	450.44
343.437	436.44
343.665	460.44
343.893	436.44
344.12	448.44
344.348	458.44
344.576	458.44
344.804	449.44
345.031	461.44
345.259	470.44
345.487	470.44
345.714	456.44
345.942	452.44
346.17	462.44
346.397	436.44
346.625	445.44
346.853	448.44
347.08	436.44
347.308	447.44
347.535	449.44
347.763	454.44
347.99	456.44
348.218	441.44
348.445	433.44
348.673	458.44
348.9	438.44
349.128	410.44
349.355	412.44
349.583	432.44
349.81	410.44
350.037	397.44
350.265	436.44
350.492	439.44
350.72	414.44
350.947	423.44
351.174	445.44
351.402	444.44
351.629	437.44
351.856	437.44
352.083	438.44
352.311	458.44
352.538	477.44
352.765	436.44
352.992	439.44
353.22	428.44
353.447	434.44
353.674	440.44
353.901	393.44
354.128	389.44
354.355	400.44
354.583	390.44
354.81	411.44
355.037	394.44
355.264	394.44
355.491	387.44
355.718	399.44
355.945	402.44
356.172	391.44
356.399	409.44
356.626	394.44
356.853	385.44
357.08	399.44
357.307	388.44
357.534	386.44
357.761	374.44
357.988	393.44
358.215	403.44
358.441	393.44
358.668	385.44
358.895	409.44
359.122	393.44
359.349	424.44
359.576	421.44
359.802	462.44
360.029	474.44
360.256	497.44
360.483	477.44
360.709	455.44
360.936	434.44
361.163	439.44
361.39	404.44
361.616	440.44
361.843	441.44
362.07	437.44
362.296	428.44
362.523	435.44
362.749	439.44
362.976	403.44
363.203	408.44
363.429	416.44
363.656	400.44
363.882	393.44
364.109	394.44
364.335	398.44
364.562	401.44
364.788	405.44
365.015	416.44
365.241	401.44
365.468	420.44
365.694	424.44
365.92	418.44
366.147	396.44
366.373	414.44
366.599	400.44
366.826	376.44
367.052	395.44
367.278	393.44
367.505	406.44
367.731	384.44
367.957	412.44
368.184	404.44
368.41	413.44
368.636	440.44
368.862	417.44
369.089	400.44
369.315	418.44
369.541	399.44
369.767	381.44
369.993	410.44
370.219	404.44
370.445	397.44
370.672	401.44
370.898	382.44
371.124	391.44
371.35	402.44
371.576	383.44
371.802	380.44
372.028	413.44
372.254	386.44
372.48	390.44
372.706	385.44
372.932	378.44
373.158	384.44
373.384	387.44
373.61	387.44
373.835	401.44
374.061	380.44
374.287	391.44
374.513	381.44
374.739	406.44
374.965	386.44
375.191	403.44
375.416	398.44
375.642	402.44
375.868	371.44
376.094	384.44
376.319	374.44
376.545	388.44
376.771	388.44
376.997	397.44
377.222	363.44
377.448	390.44
377.674	386.44
377.899	385.44
378.125	382.44
378.35	401.44
378.576	380.44
378.802	394.44
379.027	374.44
379.253	377.44
379.478	376.44
379.704	383.44
379.929	387.44
380.155	394.44
380.38	387.44
380.606	388.44
380.831	376.44
381.057	362.44
381.282	377.44
381.507	372.44
381.733	381.44
381.958	386.44
382.184	392.44
382.409	381.44
382.634	385.44
382.86	380.44
383.085	377.44
383.31	377.44
383.535	407.44
383.761	404.44
383.986	388.44
384.211	403.44
384.436	378.44
384.662	390.44
384.887	393.44
385.112	395.44
385.337	415.44
385.562	396.44
385.787	417.44
386.013	431.44
386.238	421.44
386.463	425.44
386.688	407.44
386.913	382.44
387.138	389.44
387.363	408.44
387.588	400.44
387.813	416.44
388.038	413.44
388.263	419.44
388.488	418.44
388.713	394.44
388.938	414.44
389.163	425.44
389.387	404.44
389.612	395.44
389.837	384.44
390.062	399.44
390.287	402.44
390.512	398.44
390.736	377.44
390.961	406.44
391.186	391.44
391.411	406.44
391.636	421.44
391.86	422.44
392.085	413.44
392.31	420.44
392.534	429.44
392.759	397.44
392.984	405.44
393.208	423.44
393.433	422.44
393.658	395.44
393.882	414.44
394.107	405.44
394.331	433.44
394.556	419.44
394.78	393.44
395.005	410.44
395.229	423.44
395.454	412.44
395.678	408.44
395.903	436.44
396.127	448.44
396.352	451.44
396.576	417.44
396.801	399.44
397.025	434.44
397.249	422.44
397.474	413.44
397.698	425.44
397.922	428.44
398.147	451.44
398.371	475.44
398.595	459.44
398.82	453.44
399.044	452.44
399.268	473.44
399.492	478.44
399.717	525.44
399.941	533.44
400.165	573.44
400.389	590.44
400.613	527.44
400.837	499.44
401.062	482.44
401.286	463.44
401.51	443.44
401.734	434.44
401.958	448.44
402.182	466.44
402.406	489.44
402.63	473.44
402.854	483.44
403.078	468.44
403.302	472.44
403.526	484.44
403.75	473.44
403.974	478.44
404.198	487.44
404.422	473.44
404.645	485.44
404.869	465.44
405.093	513.44
405.317	595.44
405.541	617.44
405.765	552.44
405.988	513.44
406.212	537.44
406.436	552.44
406.66	537.44
406.883	531.44
407.107	546.44
407.331	580.44
407.555	633.44
407.778	634.44
408.002	594.44
408.226	557.44
408.449	544.44
408.673	530.44
408.896	562.44
409.12	612.44
409.344	554.44
409.567	517.44
409.791	473.44
410.014	488.44
410.238	477.44
410.461	465.44
410.685	471.44
410.908	517.44
411.132	546.44
411.355	569.44
411.578	548.44
411.802	498.44
412.025	475.44
412.249	486.44
412.472	506.44
412.695	571.44
412.919	568.44
413.142	518.44
413.365	453.44
413.589	467.44
413.812	459.44
414.035	455.44
414.258	450.44
414.482	436.44
414.705	456.44
414.928	464.44
415.151	436.44
415.374	430.44
415.597	453.44
415.821	436.44
416.044	453.44
416.267	455.44
416.49	444.44
416.713	456.44
416.936	454.44
417.159	454.44
417.382	443.44
417.605	473.44
417.828	454.44
418.051	476.44
418.274	467.44
418.497	449.44
418.72	462.44
418.943	444.44
419.166	462.44
419.389	476.44
419.611	476.44
419.834	488.44
420.057	481.44
420.28	512.44
420.503	474.44
420.726	468.44
420.948	505.44
421.171	538.44
421.394	563.44
421.617	506.44
421.839	488.44
422.062	498.44
422.285	493.44
422.507	568.44
422.73	623.44
422.953	594.44
423.175	537.44
423.398	523.44
423.621	508.44
423.843	540.44
424.066	514.44
424.288	498.44
424.511	562.44
424.733	609.44
424.956	700.44
425.178	648.44
425.401	654.44
425.623	677.44
425.846	572.44
426.068	546.44
426.291	536.44
426.513	527.44
426.735	503.44
426.958	586.44
427.18	656.44
427.402	759.44
427.625	888.44
427.847	774.44
428.069	696.44
428.292	626.44
428.514	518.44
428.736	531.44
428.958	499.44
429.181	453.44
429.403	479.44
429.625	483.44
429.847	535.44
430.069	592.44
430.292	585.44
430.514	507.44
430.736	473.44
430.958	480.44
431.18	454.44
431.402	456.44
431.624	458.44
431.846	434.44
432.068	455.44
432.29	457.44
432.512	452.44
432.734	455.44
432.956	475.44
433.178	473.44
433.4	471.44
433.622	459.44
433.844	449.44
434.066	454.44
434.287	449.44
434.509	460.44
434.731	467.44
434.953	467.44
435.175	493.44
435.397	510.44
435.618	510.44
435.84	589.44
436.062	666.44
436.284	740.44
436.505	621.44
436.727	546.44
436.949	493.44
437.17	488.44
437.392	489.44
437.614	487.44
437.835	527.44
438.057	640.44
438.278	733.44
438.5	741.44
438.721	773.44
438.943	766.44
439.165	598.44
439.386	566.44
439.608	539.44
439.829	530.44
440.05	571.44
440.272	637.44
440.493	592.44
440.715	522.44
440.936	518.44
441.158	496.44
441.379	492.44
441.6	507.44
441.822	526.44
442.043	561.44
442.264	649.44
442.486	681.44
442.707	608.44
442.928	548.44
443.149	562.44
443.371	576.44
443.592	594.44
443.813	712.44
444.034	754.44
444.255	634.44
444.476	547.44
444.698	528.44
444.919	520.44
445.14	634.44
445.361	599.44
445.582	574.44
445.803	651.44
446.024	751.44
446.245	756.44
446.466	678.44
446.687	596.44
446.908	548.44
447.129	486.44
447.35	462.44
447.571	459.44
447.792	474.44
448.013	490.44
448.234	512.44
448.455	559.44
448.675	680.44
448.896	771.44
449.117	664.44
449.338	629.44
449.559	720.44
449.779	830.44
450	666.44
450.221	561.44
450.442	504.44
450.662	487.44
450.883	493.44
451.104	501.44
451.324	493.44
451.545	467.44
451.766	446.44
451.986	444.44
452.207	455.44
452.428	434.44
452.648	439.44
452.869	434.44
453.089	448.44
453.31	448.44
453.53	442.44
453.751	425.44
453.971	462.44
454.192	468.44
454.412	466.44
454.633	436.44
454.853	432.44
455.073	427.44
455.294	454.44
455.514	539.44
455.734	518.44
455.955	440.44
456.175	397.44
456.395	404.44
456.616	392.44
456.836	400.44
457.056	383.44
457.276	381.44
457.497	398.44
457.717	382.44
457.937	382.44
458.157	413.44
458.377	418.44
458.598	447.44
458.818	490.44
459.038	579.44
459.258	629.44
459.478	510.44
459.698	460.44
459.918	447.44
460.138	447.44
460.358	432.44
460.578	432.44
460.798	437.44
461.018	436.44
461.238	432.44
461.458	450.44
461.678	451.44
461.898	429.44
462.118	458.44
462.338	442.44
462.558	451.44
462.777	452.44
462.997	461.44
463.217	474.44
463.437	488.44
463.657	449.44
463.876	461.44
464.096	465.44
464.316	442.44
464.536	489.44
464.755	505.44
464.975	486.44
465.195	557.44
465.414	614.44
465.634	564.44
465.854	485.44
466.073	455.44
466.293	469.44
466.512	442.44
466.732	417.44
466.951	415.44
467.171	447.44
467.391	431.44
467.61	435.44
467.829	439.44
468.049	443.44
468.268	452.44
468.488	451.44
468.707	410.44
468.927	412.44
469.146	412.44
469.365	449.44
469.585	430.44
469.804	429.44
470.023	437.44
470.243	437.44
470.462	436.44
470.681	473.44
470.901	452.44
471.12	424.44
471.339	441.44
471.558	428.44
471.777	441.44
471.997	438.44
472.216	440.44
472.435	500.44
472.654	498.44
472.873	475.44
473.092	438.44
473.311	421.44
473.53	443.44
473.749	468.44
473.968	506.44
474.187	624.44
474.406	648.44
474.625	524.44
474.844	462.44
475.063	453.44
475.282	452.44
475.501	448.44
475.72	450.44
475.939	472.44
476.158	447.44
476.377	449.44
476.596	452.44
476.814	459.44
477.033	477.44
477.252	458.44
477.471	470.44
477.69	487.44
477.908	452.44
478.127	474.44
478.346	464.44
478.564	479.44
478.783	468.44
479.002	514.44
479.22	506.44
479.439	514.44
479.658	513.44
479.876	528.44
480.095	549.44
480.313	542.44
480.532	562.44
480.751	541.44
480.969	560.44
481.188	637.44
481.406	700.44
481.624	614.44
481.843	576.44
482.061	569.44
482.28	516.44
482.498	526.44
482.717	533.44
482.935	540.44
483.153	539.44
483.372	539.44
483.59	514.44
483.808	518.44
484.027	507.44
484.245	546.44
484.463	520.44
484.681	546.44
484.9	556.44
485.118	520.44
485.336	515.44
485.554	533.44
485.772	544.44
485.99	523.44
486.209	545.44
486.427	569.44
486.645	545.44
486.863	574.44
487.081	587.44
487.299	577.44
487.517	554.44
487.735	549.44
487.953	555.44
488.171	561.44
488.389	568.44
488.607	571.44
488.825	573.44
489.043	546.44
489.261	566.44
489.479	602.44
489.696	574.44
489.914	578.44
490.132	596.44
490.35	601.44
490.568	597.44
490.786	583.44
491.003	607.44
491.221	626.44
491.439	632.44
491.657	625.44
491.874	634.44
492.092	656.44
492.31	629.44
492.527	668.44
492.745	658.44
492.963	666.44
493.18	648.44
493.398	666.44
493.615	670.44
493.833	668.44
494.05	690.44
494.268	664.44
494.485	682.44
494.703	653.44
494.92	649.44
495.138	662.44
495.355	712.44
495.573	681.44
495.79	687.44
496.008	666.44
496.225	674.44
496.442	676.44
496.66	652.44
496.877	664.44
497.094	663.44
497.312	649.44
497.529	671.44
497.746	670.44
497.963	698.44
498.181	700.44
498.398	715.44
498.615	712.44
498.832	731.44
499.049	745.44
499.267	742.44
499.484	736.44
499.701	789.44
499.918	788.44
500.135	816.44
500.352	850.44
500.569	845.44
500.786	852.44
501.003	844.44
501.22	839.44
501.437	808.44
501.654	825.44
501.871	809.44
