Data from 1989.PennyLincolnUp.Lamp.En5.5.200Scan.071819.P2_HRD10591_17-25-00-973.txt Node
Date: Thu Jul 18 17:25:00 EDT 2019
User: cochatt
Spectrometer: HR+D1059
Trigger mode: 1
Integration Time (sec): 1.000000E-1
Scans to average: 1
Electric dark correction enabled: true
Nonlinearity correction enabled: false
Boxcar width: 0
XAxis mode: Wavelengths
Number of Pixels in Spectrum: 2048
>>>>>Begin Spectral Data<<<<<
223.165	-14.69
223.4	-14.69
223.635	-14.69
223.869	-22.69
224.104	-11.69
224.338	-10.69
224.573	-28.69
224.808	-11.69
225.042	1.31
225.277	-11.69
225.511	-9.69
225.746	1.31
225.98	10.31
226.215	14.31
226.449	23.31
226.683	27.31
226.918	8.31
227.152	35.31
227.387	32.31
227.621	26.31
227.856	35.31
228.09	42.31
228.324	51.31
228.559	51.31
228.793	60.31
229.027	90.31
229.262	105.31
229.496	113.31
229.73	145.31
229.964	194.31
230.199	133.31
230.433	119.31
230.667	111.31
230.901	113.31
231.136	121.31
231.37	116.31
231.604	119.31
231.838	111.31
232.072	123.31
232.306	109.31
232.541	113.31
232.775	117.31
233.009	117.31
233.243	124.31
233.477	115.31
233.711	115.31
233.945	126.31
234.179	117.31
234.413	123.31
234.647	114.31
234.881	114.31
235.115	116.31
235.349	107.31
235.583	125.31
235.817	124.31
236.051	123.31
236.285	132.31
236.519	127.31
236.753	129.31
236.987	141.31
237.221	178.31
237.455	264.31
237.689	200.31
237.922	134.31
238.156	144.31
238.39	134.31
238.624	132.31
238.858	133.31
239.091	131.31
239.325	139.31
239.559	111.31
239.793	142.31
240.027	141.31
240.26	151.31
240.494	168.31
240.728	156.31
240.961	150.31
241.195	143.31
241.429	159.31
241.662	135.31
241.896	146.31
242.13	135.31
242.363	132.31
242.597	143.31
242.83	140.31
243.064	130.31
243.298	135.31
243.531	150.31
243.765	148.31
243.998	150.31
244.232	138.31
244.465	133.31
244.699	143.31
244.932	142.31
245.166	155.31
245.399	165.31
245.633	153.31
245.866	129.31
246.099	146.31
246.333	149.31
246.566	152.31
246.8	162.31
247.033	156.31
247.266	157.31
247.5	179.31
247.733	177.31
247.966	169.31
248.2	191.31
248.433	178.31
248.666	175.31
248.899	187.31
249.133	202.31
249.366	229.31
249.599	222.31
249.832	196.31
250.066	192.31
250.299	185.31
250.532	210.31
250.765	204.31
250.998	206.31
251.231	223.31
251.465	228.31
251.698	231.31
251.931	227.31
252.164	221.31
252.397	204.31
252.63	212.31
252.863	219.31
253.096	247.31
253.329	254.31
253.562	254.31
253.795	242.31
254.028	236.31
254.261	223.31
254.494	234.31
254.727	276.31
254.96	289.31
255.193	305.31
255.426	263.31
255.659	248.31
255.892	253.31
256.124	258.31
256.357	252.31
256.59	228.31
256.823	219.31
257.056	216.31
257.289	226.31
257.521	237.31
257.754	237.31
257.987	201.31
258.22	215.31
258.452	218.31
258.685	216.31
258.918	218.31
259.151	224.31
259.383	228.31
259.616	227.31
259.849	247.31
260.081	271.31
260.314	272.31
260.547	280.31
260.779	257.31
261.012	268.31
261.244	249.31
261.477	257.31
261.71	250.31
261.942	251.31
262.175	270.31
262.407	271.31
262.64	234.31
262.872	247.31
263.105	232.31
263.337	217.31
263.57	228.31
263.802	220.31
264.035	231.31
264.267	208.31
264.499	234.31
264.732	232.31
264.964	216.31
265.197	224.31
265.429	240.31
265.661	228.31
265.894	225.31
266.126	232.31
266.358	231.31
266.591	221.31
266.823	231.31
267.055	255.31
267.287	238.31
267.52	251.31
267.752	253.31
267.984	239.31
268.216	245.31
268.448	251.31
268.681	256.31
268.913	271.31
269.145	274.31
269.377	317.31
269.609	305.31
269.841	297.31
270.073	283.31
270.306	311.31
270.538	357.31
270.77	363.31
271.002	336.31
271.234	320.31
271.466	314.31
271.698	340.31
271.93	364.31
272.162	341.31
272.394	348.31
272.626	323.31
272.858	321.31
273.09	295.31
273.322	302.31
273.553	292.31
273.785	293.31
274.017	286.31
274.249	298.31
274.481	284.31
274.713	284.31
274.945	279.31
275.176	285.31
275.408	291.31
275.64	291.31
275.872	286.31
276.104	287.31
276.335	277.31
276.567	307.31
276.799	309.31
277.031	327.31
277.262	330.31
277.494	350.31
277.726	321.31
277.957	303.31
278.189	310.31
278.421	293.31
278.652	300.31
278.884	291.31
279.115	295.31
279.347	286.31
279.579	279.31
279.81	265.31
280.042	292.31
280.273	291.31
280.505	263.31
280.736	287.31
280.968	265.31
281.199	281.31
281.431	288.31
281.662	271.31
281.894	267.31
282.125	289.31
282.356	303.31
282.588	327.31
282.819	332.31
283.051	303.31
283.282	275.31
283.513	297.31
283.745	303.31
283.976	292.31
284.207	283.31
284.439	295.31
284.67	281.31
284.901	293.31
285.132	299.31
285.364	291.31
285.595	297.31
285.826	295.31
286.057	291.31
286.288	300.31
286.52	305.31
286.751	313.31
286.982	301.31
287.213	291.31
287.444	299.31
287.675	316.31
287.906	326.31
288.138	328.31
288.369	327.31
288.6	317.31
288.831	303.31
289.062	301.31
289.293	310.31
289.524	303.31
289.755	309.31
289.986	299.31
290.217	292.31
290.448	287.31
290.679	300.31
290.91	316.31
291.141	288.31
291.371	290.31
291.602	288.31
291.833	305.31
292.064	307.31
292.295	306.31
292.526	300.31
292.757	308.31
292.987	303.31
293.218	299.31
293.449	289.31
293.68	286.31
293.91	291.31
294.141	296.31
294.372	294.31
294.603	300.31
294.833	307.31
295.064	296.31
295.295	303.31
295.525	295.31
295.756	313.31
295.987	312.31
296.217	340.31
296.448	349.31
296.679	337.31
296.909	300.31
297.14	297.31
297.37	317.31
297.601	309.31
297.831	315.31
298.062	317.31
298.292	333.31
298.523	311.31
298.753	307.31
298.984	322.31
299.214	321.31
299.445	309.31
299.675	327.31
299.905	339.31
300.136	318.31
300.366	304.31
300.597	316.31
300.827	315.31
301.057	317.31
301.288	334.31
301.518	332.31
301.748	326.31
301.979	327.31
302.209	327.31
302.439	339.31
302.669	337.31
302.9	331.31
303.13	321.31
303.36	314.31
303.59	333.31
303.82	360.31
304.051	359.31
304.281	338.31
304.511	357.31
304.741	336.31
304.971	342.31
305.201	321.31
305.431	333.31
305.661	325.31
305.891	357.31
306.121	334.31
306.352	329.31
306.582	348.31
306.812	346.31
307.042	339.31
307.272	356.31
307.502	341.31
307.731	374.31
307.961	341.31
308.191	353.31
308.421	342.31
308.651	368.31
308.881	371.31
309.111	343.31
309.341	367.31
309.571	337.31
309.8	371.31
310.03	363.31
310.26	379.31
310.49	403.31
310.72	416.31
310.949	401.31
311.179	431.31
311.409	405.31
311.639	407.31
311.868	403.31
312.098	401.31
312.328	408.31
312.557	431.31
312.787	452.31
313.017	442.31
313.246	401.31
313.476	399.31
313.706	402.31
313.935	401.31
314.165	419.31
314.394	445.31
314.624	397.31
314.853	419.31
315.083	410.31
315.312	407.31
315.542	391.31
315.771	399.31
316.001	391.31
316.23	363.31
316.46	376.31
316.689	403.31
316.919	423.31
317.148	427.31
317.377	424.31
317.607	415.31
317.836	407.31
318.065	398.31
318.295	387.31
318.524	411.31
318.753	388.31
318.983	415.31
319.212	401.31
319.441	410.31
319.67	422.31
319.9	409.31
320.129	405.31
320.358	403.31
320.587	423.31
320.816	415.31
321.046	425.31
321.275	432.31
321.504	415.31
321.733	422.31
321.962	440.31
322.191	458.31
322.42	467.31
322.649	469.31
322.878	490.31
323.108	485.31
323.337	497.31
323.566	560.31
323.795	581.31
324.024	629.31
324.253	769.31
324.482	1140.31
324.71	1732.31
324.939	2479.31
325.168	2135.31
325.397	1111.31
325.626	750.31
325.855	598.31
326.084	549.31
326.313	527.31
326.542	560.31
326.77	623.31
326.999	738.31
327.228	1010.31
327.457	1513.31
327.686	1913.31
327.914	1255.31
328.143	811.31
328.372	692.31
328.6	645.31
328.829	635.31
329.058	649.31
329.287	647.31
329.515	600.31
329.744	561.31
329.972	556.31
330.201	554.31
330.43	583.31
330.658	626.31
330.887	670.31
331.115	651.31
331.344	554.31
331.572	529.31
331.801	530.31
332.03	511.31
332.258	489.31
332.486	485.31
332.715	465.31
332.943	458.31
333.172	457.31
333.4	448.31
333.629	491.31
333.857	501.31
334.085	498.31
334.314	509.31
334.542	504.31
334.771	527.31
334.999	488.31
335.227	475.31
335.455	473.31
335.684	473.31
335.912	452.31
336.14	460.31
336.369	457.31
336.597	471.31
336.825	449.31
337.053	455.31
337.281	466.31
337.51	431.31
337.738	440.31
337.966	454.31
338.194	456.31
338.422	458.31
338.65	455.31
338.878	420.31
339.106	427.31
339.334	441.31
339.562	429.31
339.79	445.31
340.018	448.31
340.246	445.31
340.474	443.31
340.702	451.31
340.93	429.31
341.158	441.31
341.386	444.31
341.614	455.31
341.842	448.31
342.07	423.31
342.298	426.31
342.526	435.31
342.754	410.31
342.981	403.31
343.209	411.31
343.437	438.31
343.665	433.31
343.893	435.31
344.12	446.31
344.348	433.31
344.576	444.31
344.804	456.31
345.031	455.31
345.259	469.31
345.487	451.31
345.714	450.31
345.942	435.31
346.17	424.31
346.397	426.31
346.625	427.31
346.853	425.31
347.08	415.31
347.308	460.31
347.535	414.31
347.763	443.31
347.99	430.31
348.218	433.31
348.445	449.31
348.673	421.31
348.9	435.31
349.128	419.31
349.355	425.31
349.583	415.31
349.81	416.31
350.037	422.31
350.265	408.31
350.492	433.31
350.72	413.31
350.947	415.31
351.174	426.31
351.402	433.31
351.629	441.31
351.856	439.31
352.083	434.31
352.311	422.31
352.538	433.31
352.765	447.31
352.992	421.31
353.22	416.31
353.447	429.31
353.674	412.31
353.901	397.31
354.128	408.31
354.355	413.31
354.583	380.31
354.81	410.31
355.037	403.31
355.264	386.31
355.491	388.31
355.718	382.31
355.945	360.31
356.172	395.31
356.399	377.31
356.626	365.31
356.853	383.31
357.08	386.31
357.307	382.31
357.534	387.31
357.761	401.31
357.988	392.31
358.215	381.31
358.441	398.31
358.668	381.31
358.895	382.31
359.122	396.31
359.349	397.31
359.576	432.31
359.802	443.31
360.029	467.31
360.256	472.31
360.483	470.31
360.709	442.31
360.936	425.31
361.163	399.31
361.39	421.31
361.616	419.31
361.843	420.31
362.07	408.31
362.296	434.31
362.523	411.31
362.749	406.31
362.976	411.31
363.203	410.31
363.429	374.31
363.656	398.31
363.882	410.31
364.109	395.31
364.335	406.31
364.562	389.31
364.788	385.31
365.015	385.31
365.241	378.31
365.468	417.31
365.694	385.31
365.92	394.31
366.147	402.31
366.373	393.31
366.599	403.31
366.826	391.31
367.052	392.31
367.278	401.31
367.505	389.31
367.731	400.31
367.957	393.31
368.184	389.31
368.41	391.31
368.636	397.31
368.862	423.31
369.089	404.31
369.315	400.31
369.541	411.31
369.767	377.31
369.993	396.31
370.219	406.31
370.445	391.31
370.672	400.31
370.898	396.31
371.124	368.31
371.35	378.31
371.576	371.31
371.802	389.31
372.028	393.31
372.254	400.31
372.48	394.31
372.706	396.31
372.932	387.31
373.158	373.31
373.384	384.31
373.61	393.31
373.835	378.31
374.061	391.31
374.287	388.31
374.513	379.31
374.739	386.31
374.965	364.31
375.191	389.31
375.416	380.31
375.642	391.31
375.868	392.31
376.094	380.31
376.319	388.31
376.545	384.31
376.771	373.31
376.997	358.31
377.222	392.31
377.448	379.31
377.674	388.31
377.899	364.31
378.125	361.31
378.35	362.31
378.576	383.31
378.802	385.31
379.027	363.31
379.253	360.31
379.478	376.31
379.704	384.31
379.929	383.31
380.155	382.31
380.38	373.31
380.606	357.31
380.831	398.31
381.057	389.31
381.282	377.31
381.507	377.31
381.733	371.31
381.958	375.31
382.184	387.31
382.409	411.31
382.634	392.31
382.86	381.31
383.085	395.31
383.31	376.31
383.535	395.31
383.761	403.31
383.986	362.31
384.211	382.31
384.436	391.31
384.662	387.31
384.887	398.31
385.112	373.31
385.337	394.31
385.562	396.31
385.787	398.31
386.013	403.31
386.238	416.31
386.463	389.31
386.688	408.31
386.913	412.31
387.138	388.31
387.363	372.31
387.588	417.31
387.813	401.31
388.038	403.31
388.263	401.31
388.488	392.31
388.713	415.31
388.938	399.31
389.163	409.31
389.387	407.31
389.612	408.31
389.837	408.31
390.062	395.31
390.287	379.31
390.512	381.31
390.736	391.31
390.961	416.31
391.186	396.31
391.411	410.31
391.636	406.31
391.86	415.31
392.085	409.31
392.31	416.31
392.534	419.31
392.759	413.31
392.984	404.31
393.208	404.31
393.433	382.31
393.658	389.31
393.882	389.31
394.107	393.31
394.331	394.31
394.556	379.31
394.78	396.31
395.005	397.31
395.229	407.31
395.454	408.31
395.678	407.31
395.903	404.31
396.127	437.31
396.352	451.31
396.576	436.31
396.801	428.31
397.025	409.31
397.249	400.31
397.474	417.31
397.698	423.31
397.922	447.31
398.147	446.31
398.371	454.31
398.595	435.31
398.82	447.31
399.044	426.31
399.268	444.31
399.492	452.31
399.717	514.31
399.941	543.31
400.165	549.31
400.389	569.31
400.613	515.31
400.837	483.31
401.062	484.31
401.286	475.31
401.51	444.31
401.734	468.31
401.958	449.31
402.182	459.31
402.406	445.31
402.63	464.31
402.854	460.31
403.078	436.31
403.302	447.31
403.526	451.31
403.75	484.31
403.974	429.31
404.198	476.31
404.422	455.31
404.645	484.31
404.869	478.31
405.093	513.31
405.317	533.31
405.541	574.31
405.765	515.31
405.988	498.31
406.212	511.31
406.436	540.31
406.66	547.31
406.883	512.31
407.107	528.31
407.331	560.31
407.555	644.31
407.778	643.31
408.002	571.31
408.226	537.31
408.449	499.31
408.673	490.31
408.896	524.31
409.12	603.31
409.344	555.31
409.567	505.31
409.791	483.31
410.014	486.31
410.238	470.31
410.461	451.31
410.685	475.31
410.908	506.31
411.132	523.31
411.355	571.31
411.578	521.31
411.802	481.31
412.025	460.31
412.249	453.31
412.472	488.31
412.695	538.31
412.919	501.31
413.142	469.31
413.365	474.31
413.589	466.31
413.812	420.31
414.035	439.31
414.258	457.31
414.482	458.31
414.705	445.31
414.928	418.31
415.151	433.31
415.374	431.31
415.597	424.31
415.821	451.31
416.044	437.31
416.267	452.31
416.49	442.31
416.713	407.31
416.936	411.31
417.159	442.31
417.382	434.31
417.605	444.31
417.828	441.31
418.051	465.31
418.274	470.31
418.497	431.31
418.72	475.31
418.943	455.31
419.166	439.31
419.389	475.31
419.611	483.31
419.834	486.31
420.057	483.31
420.28	468.31
420.503	462.31
420.726	453.31
420.948	468.31
421.171	527.31
421.394	550.31
421.617	503.31
421.839	459.31
422.062	466.31
422.285	486.31
422.507	563.31
422.73	623.31
422.953	580.31
423.175	519.31
423.398	486.31
423.621	496.31
423.843	503.31
424.066	528.31
424.288	482.31
424.511	520.31
424.733	565.31
424.956	659.31
425.178	630.31
425.401	649.31
425.623	653.31
425.846	552.31
426.068	489.31
426.291	488.31
426.513	493.31
426.735	543.31
426.958	551.31
427.18	636.31
427.402	773.31
427.625	867.31
427.847	759.31
428.069	634.31
428.292	567.31
428.514	513.31
428.736	490.31
428.958	489.31
429.181	466.31
429.403	473.31
429.625	496.31
429.847	529.31
430.069	566.31
430.292	577.31
430.514	498.31
430.736	466.31
430.958	455.31
431.18	446.31
431.402	452.31
431.624	417.31
431.846	436.31
432.068	440.31
432.29	458.31
432.512	443.31
432.734	456.31
432.956	468.31
433.178	450.31
433.4	457.31
433.622	448.31
433.844	444.31
434.066	450.31
434.287	435.31
434.509	431.31
434.731	435.31
434.953	437.31
435.175	465.31
435.397	508.31
435.618	501.31
435.84	552.31
436.062	654.31
436.284	687.31
436.505	588.31
436.727	544.31
436.949	496.31
437.17	482.31
437.392	463.31
437.614	489.31
437.835	520.31
438.057	618.31
438.278	714.31
438.5	732.31
438.721	796.31
438.943	785.31
439.165	600.31
439.386	546.31
439.608	525.31
439.829	533.31
440.05	543.31
440.272	628.31
440.493	552.31
440.715	533.31
440.936	500.31
441.158	461.31
441.379	470.31
441.6	480.31
441.822	499.31
442.043	536.31
442.264	616.31
442.486	680.31
442.707	561.31
442.928	518.31
443.149	513.31
443.371	570.31
443.592	618.31
443.813	675.31
444.034	748.31
444.255	626.31
444.476	555.31
444.698	528.31
444.919	506.31
445.14	577.31
445.361	554.31
445.582	565.31
445.803	646.31
446.024	709.31
446.245	732.31
446.466	691.31
446.687	559.31
446.908	517.31
447.129	496.31
447.35	489.31
447.571	478.31
447.792	468.31
448.013	452.31
448.234	501.31
448.455	562.31
448.675	679.31
448.896	736.31
449.117	667.31
449.338	629.31
449.559	692.31
449.779	807.31
450	661.31
450.221	537.31
450.442	517.31
450.662	484.31
450.883	452.31
451.104	491.31
451.324	455.31
451.545	469.31
451.766	439.31
451.986	425.31
452.207	441.31
452.428	439.31
452.648	418.31
452.869	401.31
453.089	434.31
453.31	441.31
453.53	422.31
453.751	429.31
453.971	417.31
454.192	464.31
454.412	439.31
454.633	411.31
454.853	425.31
455.073	427.31
455.294	447.31
455.514	524.31
455.734	506.31
455.955	436.31
456.175	416.31
456.395	403.31
456.616	394.31
456.836	396.31
457.056	375.31
457.276	365.31
457.497	399.31
457.717	367.31
457.937	392.31
458.157	395.31
458.377	407.31
458.598	431.31
458.818	487.31
459.038	591.31
459.258	590.31
459.478	484.31
459.698	448.31
459.918	426.31
460.138	414.31
460.358	417.31
460.578	420.31
460.798	432.31
461.018	438.31
461.238	432.31
461.458	432.31
461.678	427.31
461.898	427.31
462.118	440.31
462.338	437.31
462.558	431.31
462.777	460.31
462.997	445.31
463.217	450.31
463.437	465.31
463.657	423.31
463.876	468.31
464.096	455.31
464.316	459.31
464.536	461.31
464.755	452.31
464.975	501.31
465.195	529.31
465.414	618.31
465.634	517.31
465.854	479.31
466.073	450.31
466.293	439.31
466.512	428.31
466.732	415.31
466.951	421.31
467.171	420.31
467.391	426.31
467.61	440.31
467.829	455.31
468.049	442.31
468.268	423.31
468.488	434.31
468.707	408.31
468.927	407.31
469.146	387.31
469.365	417.31
469.585	424.31
469.804	419.31
470.023	423.31
470.243	441.31
470.462	436.31
470.681	461.31
470.901	457.31
471.12	422.31
471.339	441.31
471.558	448.31
471.777	476.31
471.997	419.31
472.216	428.31
472.435	477.31
472.654	456.31
472.873	425.31
473.092	426.31
473.311	426.31
473.53	419.31
473.749	448.31
473.968	481.31
474.187	612.31
474.406	601.31
474.625	505.31
474.844	461.31
475.063	441.31
475.282	428.31
475.501	440.31
475.72	441.31
475.939	441.31
476.158	448.31
476.377	433.31
476.596	452.31
476.814	433.31
477.033	446.31
477.252	463.31
477.471	448.31
477.69	456.31
477.908	458.31
478.127	463.31
478.346	454.31
478.564	476.31
478.783	484.31
479.002	473.31
479.22	492.31
479.439	510.31
479.658	531.31
479.876	515.31
480.095	510.31
480.313	550.31
480.532	538.31
480.751	524.31
480.969	530.31
481.188	570.31
481.406	618.31
481.624	563.31
481.843	515.31
482.061	512.31
482.28	496.31
482.498	499.31
482.717	503.31
482.935	525.31
483.153	508.31
483.372	486.31
483.59	507.31
483.808	476.31
484.027	499.31
484.245	502.31
484.463	531.31
484.681	537.31
484.9	513.31
485.118	519.31
485.336	497.31
485.554	512.31
485.772	509.31
485.99	526.31
486.209	532.31
486.427	533.31
486.645	552.31
486.863	548.31
487.081	548.31
487.299	548.31
487.517	557.31
487.735	553.31
487.953	538.31
488.171	537.31
488.389	524.31
488.607	559.31
488.825	544.31
489.043	541.31
489.261	556.31
489.479	545.31
489.696	556.31
489.914	552.31
490.132	566.31
490.35	580.31
490.568	587.31
490.786	559.31
491.003	586.31
491.221	591.31
491.439	607.31
491.657	627.31
491.874	625.31
492.092	631.31
492.31	639.31
492.527	641.31
492.745	622.31
492.963	638.31
493.18	626.31
493.398	662.31
493.615	641.31
493.833	639.31
494.05	636.31
494.268	638.31
494.485	642.31
494.703	654.31
494.92	650.31
495.138	663.31
495.355	647.31
495.573	669.31
495.79	630.31
496.008	659.31
496.225	638.31
496.442	658.31
496.66	669.31
496.877	663.31
497.094	660.31
497.312	645.31
497.529	677.31
497.746	676.31
497.963	658.31
498.181	677.31
498.398	696.31
498.615	706.31
498.832	719.31
499.049	742.31
499.267	727.31
499.484	768.31
499.701	765.31
499.918	781.31
500.135	803.31
500.352	837.31
500.569	841.31
500.786	827.31
501.003	847.31
501.22	841.31
501.437	789.31
501.654	801.31
501.871	798.31
