Data from 1989.PennyLincolnUp.Lamp.En5.5.200Scan.071819.P2_HRD10591_17-25-35-973.txt Node
Date: Thu Jul 18 17:25:35 EDT 2019
User: cochatt
Spectrometer: HR+D1059
Trigger mode: 1
Integration Time (sec): 1.000000E-1
Scans to average: 1
Electric dark correction enabled: true
Nonlinearity correction enabled: false
Boxcar width: 0
XAxis mode: Wavelengths
Number of Pixels in Spectrum: 2048
>>>>>Begin Spectral Data<<<<<
223.165	-18.81
223.4	-18.81
223.635	-18.81
223.869	-18.81
224.104	-18.81
224.338	-11.81
224.573	-21.81
224.808	-14.81
225.042	-1.81
225.277	-6.81
225.511	0.19
225.746	5.19
225.98	18.19
226.215	10.19
226.449	2.19
226.683	11.19
226.918	33.19
227.152	33.19
227.387	28.19
227.621	45.19
227.856	39.19
228.09	59.19
228.324	44.19
228.559	56.19
228.793	74.19
229.027	100.19
229.262	112.19
229.496	115.19
229.73	144.19
229.964	151.19
230.199	139.19
230.433	120.19
230.667	126.19
230.901	116.19
231.136	111.19
231.37	103.19
231.604	119.19
231.838	113.19
232.072	111.19
232.306	109.19
232.541	110.19
232.775	108.19
233.009	116.19
233.243	115.19
233.477	129.19
233.711	111.19
233.945	94.19
234.179	114.19
234.413	118.19
234.647	106.19
234.881	121.19
235.115	123.19
235.349	124.19
235.583	127.19
235.817	119.19
236.051	133.19
236.285	136.19
236.519	122.19
236.753	137.19
236.987	160.19
237.221	191.19
237.455	238.19
237.689	185.19
237.922	153.19
238.156	145.19
238.39	140.19
238.624	121.19
238.858	121.19
239.091	134.19
239.325	126.19
239.559	134.19
239.793	137.19
240.027	135.19
240.26	155.19
240.494	165.19
240.728	159.19
240.961	156.19
241.195	159.19
241.429	146.19
241.662	141.19
241.896	147.19
242.13	138.19
242.363	127.19
242.597	145.19
242.83	151.19
243.064	144.19
243.298	143.19
243.531	149.19
243.765	157.19
243.998	142.19
244.232	153.19
244.465	138.19
244.699	133.19
244.932	150.19
245.166	164.19
245.399	141.19
245.633	169.19
245.866	142.19
246.099	147.19
246.333	150.19
246.566	156.19
246.8	140.19
247.033	152.19
247.266	174.19
247.5	166.19
247.733	195.19
247.966	180.19
248.2	188.19
248.433	198.19
248.666	189.19
248.899	199.19
249.133	204.19
249.366	220.19
249.599	224.19
249.832	205.19
250.066	210.19
250.299	193.19
250.532	206.19
250.765	224.19
250.998	249.19
251.231	236.19
251.465	243.19
251.698	233.19
251.931	191.19
252.164	215.19
252.397	222.19
252.63	229.19
252.863	212.19
253.096	218.19
253.329	248.19
253.562	247.19
253.795	257.19
254.028	230.19
254.261	231.19
254.494	267.19
254.727	289.19
254.96	326.19
255.193	311.19
255.426	263.19
255.659	261.19
255.892	264.19
256.124	252.19
256.357	285.19
256.59	244.19
256.823	254.19
257.056	244.19
257.289	245.19
257.521	232.19
257.754	219.19
257.987	214.19
258.22	236.19
258.452	219.19
258.685	219.19
258.918	211.19
259.151	252.19
259.383	234.19
259.616	249.19
259.849	254.19
260.081	267.19
260.314	282.19
260.547	281.19
260.779	259.19
261.012	266.19
261.244	249.19
261.477	239.19
261.71	242.19
261.942	257.19
262.175	269.19
262.407	254.19
262.64	221.19
262.872	230.19
263.105	234.19
263.337	216.19
263.57	243.19
263.802	245.19
264.035	228.19
264.267	234.19
264.499	237.19
264.732	234.19
264.964	237.19
265.197	243.19
265.429	228.19
265.661	240.19
265.894	223.19
266.126	243.19
266.358	224.19
266.591	252.19
266.823	248.19
267.055	250.19
267.287	271.19
267.52	239.19
267.752	244.19
267.984	225.19
268.216	243.19
268.448	251.19
268.681	255.19
268.913	270.19
269.145	285.19
269.377	295.19
269.609	281.19
269.841	297.19
270.073	294.19
270.306	299.19
270.538	354.19
270.77	346.19
271.002	348.19
271.234	323.19
271.466	326.19
271.698	337.19
271.93	359.19
272.162	365.19
272.394	332.19
272.626	335.19
272.858	318.19
273.09	295.19
273.322	313.19
273.553	289.19
273.785	285.19
274.017	297.19
274.249	287.19
274.481	289.19
274.713	293.19
274.945	299.19
275.176	281.19
275.408	295.19
275.64	296.19
275.872	280.19
276.104	287.19
276.335	298.19
276.567	307.19
276.799	327.19
277.031	344.19
277.262	339.19
277.494	338.19
277.726	339.19
277.957	306.19
278.189	317.19
278.421	282.19
278.652	285.19
278.884	297.19
279.115	271.19
279.347	280.19
279.579	303.19
279.81	285.19
280.042	286.19
280.273	296.19
280.505	280.19
280.736	302.19
280.968	284.19
281.199	298.19
281.431	290.19
281.662	305.19
281.894	285.19
282.125	289.19
282.356	311.19
282.588	338.19
282.819	327.19
283.051	297.19
283.282	297.19
283.513	282.19
283.745	291.19
283.976	308.19
284.207	291.19
284.439	300.19
284.67	318.19
284.901	301.19
285.132	299.19
285.364	313.19
285.595	305.19
285.826	305.19
286.057	295.19
286.288	280.19
286.52	298.19
286.751	310.19
286.982	303.19
287.213	297.19
287.444	302.19
287.675	297.19
287.906	312.19
288.138	326.19
288.369	320.19
288.6	323.19
288.831	316.19
289.062	321.19
289.293	293.19
289.524	308.19
289.755	300.19
289.986	326.19
290.217	309.19
290.448	314.19
290.679	313.19
290.91	321.19
291.141	305.19
291.371	305.19
291.602	314.19
291.833	292.19
292.064	311.19
292.295	328.19
292.526	310.19
292.757	294.19
292.987	311.19
293.218	297.19
293.449	313.19
293.68	326.19
293.91	314.19
294.141	310.19
294.372	306.19
294.603	309.19
294.833	304.19
295.064	321.19
295.295	317.19
295.525	312.19
295.756	321.19
295.987	348.19
296.217	366.19
296.448	370.19
296.679	354.19
296.909	307.19
297.14	323.19
297.37	315.19
297.601	297.19
297.831	311.19
298.062	324.19
298.292	325.19
298.523	316.19
298.753	339.19
298.984	315.19
299.214	330.19
299.445	349.19
299.675	325.19
299.905	342.19
300.136	332.19
300.366	321.19
300.597	346.19
300.827	325.19
301.057	348.19
301.288	349.19
301.518	344.19
301.748	350.19
301.979	360.19
302.209	348.19
302.439	343.19
302.669	363.19
302.9	342.19
303.13	337.19
303.36	361.19
303.59	377.19
303.82	377.19
304.051	361.19
304.281	347.19
304.511	337.19
304.741	358.19
304.971	353.19
305.201	336.19
305.431	355.19
305.661	342.19
305.891	341.19
306.121	341.19
306.352	357.19
306.582	366.19
306.812	349.19
307.042	334.19
307.272	355.19
307.502	359.19
307.731	352.19
307.961	346.19
308.191	380.19
308.421	349.19
308.651	369.19
308.881	369.19
309.111	329.19
309.341	357.19
309.571	381.19
309.8	410.19
310.03	391.19
310.26	411.19
310.49	400.19
310.72	406.19
310.949	418.19
311.179	436.19
311.409	417.19
311.639	390.19
311.868	409.19
312.098	408.19
312.328	413.19
312.557	423.19
312.787	440.19
313.017	450.19
313.246	409.19
313.476	401.19
313.706	398.19
313.935	409.19
314.165	453.19
314.394	429.19
314.624	429.19
314.853	427.19
315.083	417.19
315.312	390.19
315.542	420.19
315.771	384.19
316.001	384.19
316.23	377.19
316.46	395.19
316.689	397.19
316.919	396.19
317.148	424.19
317.377	403.19
317.607	429.19
317.836	417.19
318.065	393.19
318.295	403.19
318.524	409.19
318.753	398.19
318.983	399.19
319.212	412.19
319.441	415.19
319.67	397.19
319.9	409.19
320.129	404.19
320.358	413.19
320.587	423.19
320.816	442.19
321.046	427.19
321.275	412.19
321.504	435.19
321.733	427.19
321.962	427.19
322.191	451.19
322.42	478.19
322.649	477.19
322.878	481.19
323.108	482.19
323.337	507.19
323.566	551.19
323.795	585.19
324.024	640.19
324.253	776.19
324.482	1117.19
324.71	1777.19
324.939	2535.19
325.168	2173.19
325.397	1110.19
325.626	737.19
325.855	607.19
326.084	578.19
326.313	554.19
326.542	562.19
326.77	638.19
326.999	736.19
327.228	1035.19
327.457	1521.19
327.686	1905.19
327.914	1246.19
328.143	831.19
328.372	723.19
328.6	685.19
328.829	645.19
329.058	638.19
329.287	663.19
329.515	619.19
329.744	554.19
329.972	579.19
330.201	582.19
330.43	632.19
330.658	661.19
330.887	695.19
331.115	661.19
331.344	579.19
331.572	531.19
331.801	535.19
332.03	515.19
332.258	507.19
332.486	487.19
332.715	486.19
332.943	485.19
333.172	488.19
333.4	476.19
333.629	493.19
333.857	524.19
334.085	534.19
334.314	552.19
334.542	578.19
334.771	607.19
334.999	578.19
335.227	516.19
335.455	501.19
335.684	488.19
335.912	485.19
336.14	473.19
336.369	491.19
336.597	493.19
336.825	469.19
337.053	451.19
337.281	446.19
337.51	458.19
337.738	467.19
337.966	446.19
338.194	449.19
338.422	483.19
338.65	488.19
338.878	434.19
339.106	461.19
339.334	473.19
339.562	447.19
339.79	443.19
340.018	418.19
340.246	424.19
340.474	452.19
340.702	445.19
340.93	446.19
341.158	441.19
341.386	450.19
341.614	450.19
341.842	452.19
342.07	441.19
342.298	428.19
342.526	422.19
342.754	452.19
342.981	433.19
343.209	414.19
343.437	430.19
343.665	429.19
343.893	444.19
344.12	449.19
344.348	462.19
344.576	445.19
344.804	458.19
345.031	461.19
345.259	479.19
345.487	472.19
345.714	451.19
345.942	413.19
346.17	460.19
346.397	428.19
346.625	427.19
346.853	435.19
347.08	413.19
347.308	405.19
347.535	432.19
347.763	462.19
347.99	451.19
348.218	465.19
348.445	461.19
348.673	434.19
348.9	423.19
349.128	437.19
349.355	417.19
349.583	410.19
349.81	402.19
350.037	413.19
350.265	400.19
350.492	404.19
350.72	410.19
350.947	427.19
351.174	445.19
351.402	437.19
351.629	445.19
351.856	438.19
352.083	460.19
352.311	425.19
352.538	441.19
352.765	453.19
352.992	451.19
353.22	446.19
353.447	441.19
353.674	411.19
353.901	419.19
354.128	407.19
354.355	398.19
354.583	401.19
354.81	377.19
355.037	377.19
355.264	387.19
355.491	405.19
355.718	409.19
355.945	399.19
356.172	399.19
356.399	386.19
356.626	389.19
356.853	381.19
357.08	393.19
357.307	384.19
357.534	386.19
357.761	395.19
357.988	399.19
358.215	402.19
358.441	391.19
358.668	383.19
358.895	409.19
359.122	409.19
359.349	424.19
359.576	425.19
359.802	439.19
360.029	482.19
360.256	507.19
360.483	477.19
360.709	439.19
360.936	415.19
361.163	425.19
361.39	409.19
361.616	435.19
361.843	431.19
362.07	440.19
362.296	439.19
362.523	450.19
362.749	406.19
362.976	397.19
363.203	397.19
363.429	400.19
363.656	410.19
363.882	409.19
364.109	385.19
364.335	393.19
364.562	422.19
364.788	408.19
365.015	409.19
365.241	394.19
365.468	423.19
365.694	411.19
365.92	408.19
366.147	410.19
366.373	408.19
366.599	392.19
366.826	389.19
367.052	387.19
367.278	407.19
367.505	388.19
367.731	404.19
367.957	405.19
368.184	408.19
368.41	404.19
368.636	408.19
368.862	425.19
369.089	401.19
369.315	402.19
369.541	374.19
369.767	387.19
369.993	385.19
370.219	392.19
370.445	407.19
370.672	381.19
370.898	394.19
371.124	407.19
371.35	387.19
371.576	387.19
371.802	389.19
372.028	378.19
372.254	378.19
372.48	380.19
372.706	424.19
372.932	403.19
373.158	387.19
373.384	405.19
373.61	399.19
373.835	409.19
374.061	387.19
374.287	377.19
374.513	375.19
374.739	419.19
374.965	401.19
375.191	413.19
375.416	406.19
375.642	393.19
375.868	390.19
376.094	408.19
376.319	388.19
376.545	395.19
376.771	402.19
376.997	393.19
377.222	389.19
377.448	402.19
377.674	375.19
377.899	390.19
378.125	361.19
378.35	374.19
378.576	397.19
378.802	379.19
379.027	398.19
379.253	390.19
379.478	372.19
379.704	388.19
379.929	405.19
380.155	387.19
380.38	398.19
380.606	399.19
380.831	397.19
381.057	389.19
381.282	394.19
381.507	381.19
381.733	391.19
381.958	377.19
382.184	382.19
382.409	381.19
382.634	382.19
382.86	365.19
383.085	385.19
383.31	384.19
383.535	394.19
383.761	396.19
383.986	399.19
384.211	373.19
384.436	417.19
384.662	426.19
384.887	410.19
385.112	407.19
385.337	407.19
385.562	406.19
385.787	426.19
386.013	427.19
386.238	443.19
386.463	437.19
386.688	405.19
386.913	421.19
387.138	418.19
387.363	391.19
387.588	387.19
387.813	406.19
388.038	418.19
388.263	400.19
388.488	417.19
388.713	416.19
388.938	400.19
389.163	413.19
389.387	431.19
389.612	405.19
389.837	402.19
390.062	402.19
390.287	399.19
390.512	405.19
390.736	417.19
390.961	403.19
391.186	411.19
391.411	406.19
391.636	404.19
391.86	420.19
392.085	410.19
392.31	399.19
392.534	404.19
392.759	413.19
392.984	413.19
393.208	396.19
393.433	396.19
393.658	398.19
393.882	405.19
394.107	400.19
394.331	421.19
394.556	390.19
394.78	419.19
395.005	429.19
395.229	399.19
395.454	406.19
395.678	411.19
395.903	427.19
396.127	438.19
396.352	457.19
396.576	442.19
396.801	427.19
397.025	430.19
397.249	425.19
397.474	407.19
397.698	423.19
397.922	456.19
398.147	464.19
398.371	463.19
398.595	461.19
398.82	471.19
399.044	477.19
399.268	444.19
399.492	479.19
399.717	522.19
399.941	493.19
400.165	535.19
400.389	562.19
400.613	531.19
400.837	497.19
401.062	470.19
401.286	451.19
401.51	468.19
401.734	462.19
401.958	460.19
402.182	461.19
402.406	462.19
402.63	479.19
402.854	459.19
403.078	468.19
403.302	461.19
403.526	468.19
403.75	491.19
403.974	476.19
404.198	472.19
404.422	461.19
404.645	498.19
404.869	511.19
405.093	502.19
405.317	541.19
405.541	598.19
405.765	534.19
405.988	522.19
406.212	507.19
406.436	549.19
406.66	562.19
406.883	520.19
407.107	545.19
407.331	575.19
407.555	623.19
407.778	657.19
408.002	567.19
408.226	545.19
408.449	513.19
408.673	525.19
408.896	571.19
409.12	611.19
409.344	565.19
409.567	518.19
409.791	487.19
410.014	477.19
410.238	482.19
410.461	489.19
410.685	484.19
410.908	505.19
411.132	535.19
411.355	558.19
411.578	563.19
411.802	513.19
412.025	463.19
412.249	483.19
412.472	492.19
412.695	546.19
412.919	539.19
413.142	492.19
413.365	477.19
413.589	487.19
413.812	455.19
414.035	466.19
414.258	442.19
414.482	454.19
414.705	465.19
414.928	465.19
415.151	458.19
415.374	448.19
415.597	444.19
415.821	437.19
416.044	453.19
416.267	443.19
416.49	440.19
416.713	425.19
416.936	443.19
417.159	423.19
417.382	459.19
417.605	461.19
417.828	438.19
418.051	493.19
418.274	479.19
418.497	486.19
418.72	463.19
418.943	450.19
419.166	466.19
419.389	487.19
419.611	473.19
419.834	477.19
420.057	481.19
420.28	493.19
420.503	469.19
420.726	485.19
420.948	480.19
421.171	549.19
421.394	570.19
421.617	511.19
421.839	490.19
422.062	467.19
422.285	513.19
422.507	539.19
422.73	635.19
422.953	594.19
423.175	522.19
423.398	488.19
423.621	512.19
423.843	499.19
424.066	530.19
424.288	502.19
424.511	535.19
424.733	599.19
424.956	659.19
425.178	638.19
425.401	661.19
425.623	665.19
425.846	562.19
426.068	531.19
426.291	523.19
426.513	535.19
426.735	519.19
426.958	555.19
427.18	660.19
427.402	795.19
427.625	866.19
427.847	798.19
428.069	665.19
428.292	584.19
428.514	531.19
428.736	512.19
428.958	487.19
429.181	480.19
429.403	454.19
429.625	482.19
429.847	515.19
430.069	580.19
430.292	598.19
430.514	511.19
430.736	485.19
430.958	465.19
431.18	439.19
431.402	452.19
431.624	459.19
431.846	450.19
432.068	446.19
432.29	456.19
432.512	447.19
432.734	457.19
432.956	471.19
433.178	468.19
433.4	465.19
433.622	460.19
433.844	452.19
434.066	446.19
434.287	438.19
434.509	440.19
434.731	473.19
434.953	478.19
435.175	478.19
435.397	493.19
435.618	520.19
435.84	543.19
436.062	671.19
436.284	721.19
436.505	617.19
436.727	545.19
436.949	478.19
437.17	489.19
437.392	469.19
437.614	501.19
437.835	531.19
438.057	617.19
438.278	727.19
438.5	733.19
438.721	793.19
438.943	726.19
439.165	614.19
439.386	565.19
439.608	542.19
439.829	557.19
440.05	548.19
440.272	606.19
440.493	581.19
440.715	509.19
440.936	517.19
441.158	467.19
441.379	473.19
441.6	474.19
441.822	525.19
442.043	561.19
442.264	646.19
442.486	681.19
442.707	583.19
442.928	554.19
443.149	549.19
443.371	561.19
443.592	615.19
443.813	699.19
444.034	778.19
444.255	642.19
444.476	541.19
444.698	526.19
444.919	503.19
445.14	634.19
445.361	571.19
445.582	587.19
445.803	639.19
446.024	732.19
446.245	733.19
446.466	685.19
446.687	598.19
446.908	533.19
447.129	494.19
447.35	490.19
447.571	470.19
447.792	462.19
448.013	477.19
448.234	491.19
448.455	571.19
448.675	698.19
448.896	787.19
449.117	699.19
449.338	623.19
449.559	726.19
449.779	803.19
450	672.19
450.221	553.19
450.442	503.19
450.662	460.19
450.883	470.19
451.104	476.19
451.324	499.19
451.545	476.19
451.766	430.19
451.986	453.19
452.207	441.19
452.428	436.19
452.648	431.19
452.869	443.19
453.089	457.19
453.31	453.19
453.53	444.19
453.751	430.19
453.971	415.19
454.192	449.19
454.412	440.19
454.633	426.19
454.853	421.19
455.073	429.19
455.294	439.19
455.514	548.19
455.734	517.19
455.955	443.19
456.175	433.19
456.395	426.19
456.616	388.19
456.836	419.19
457.056	410.19
457.276	400.19
457.497	402.19
457.717	393.19
457.937	415.19
458.157	415.19
458.377	405.19
458.598	441.19
458.818	500.19
459.038	581.19
459.258	596.19
459.478	517.19
459.698	453.19
459.918	458.19
460.138	459.19
460.358	423.19
460.578	446.19
460.798	426.19
461.018	451.19
461.238	433.19
461.458	430.19
461.678	413.19
461.898	451.19
462.118	429.19
462.338	446.19
462.558	452.19
462.777	473.19
462.997	467.19
463.217	443.19
463.437	463.19
463.657	481.19
463.876	454.19
464.096	435.19
464.316	470.19
464.536	456.19
464.755	463.19
464.975	472.19
465.195	536.19
465.414	603.19
465.634	531.19
465.854	469.19
466.073	478.19
466.293	460.19
466.512	445.19
466.732	435.19
466.951	428.19
467.171	443.19
467.391	425.19
467.61	447.19
467.829	459.19
468.049	460.19
468.268	441.19
468.488	429.19
468.707	402.19
468.927	420.19
469.146	395.19
469.365	423.19
469.585	429.19
469.804	455.19
470.023	437.19
470.243	462.19
470.462	433.19
470.681	463.19
470.901	449.19
471.12	450.19
471.339	458.19
471.558	458.19
471.777	444.19
471.997	438.19
472.216	462.19
472.435	507.19
472.654	466.19
472.873	433.19
473.092	437.19
473.311	428.19
473.53	452.19
473.749	470.19
473.968	485.19
474.187	596.19
474.406	618.19
474.625	523.19
474.844	465.19
475.063	449.19
475.282	444.19
475.501	445.19
475.72	435.19
475.939	433.19
476.158	437.19
476.377	454.19
476.596	446.19
476.814	466.19
477.033	482.19
477.252	482.19
477.471	451.19
477.69	476.19
477.908	486.19
478.127	480.19
478.346	475.19
478.564	475.19
478.783	493.19
479.002	494.19
479.22	489.19
479.439	527.19
479.658	538.19
479.876	527.19
480.095	541.19
480.313	557.19
480.532	549.19
480.751	552.19
480.969	554.19
481.188	634.19
481.406	681.19
481.624	578.19
481.843	569.19
482.061	541.19
482.28	541.19
482.498	516.19
482.717	531.19
482.935	523.19
483.153	516.19
483.372	509.19
483.59	531.19
483.808	522.19
484.027	501.19
484.245	511.19
484.463	550.19
484.681	506.19
484.9	497.19
485.118	522.19
485.336	535.19
485.554	547.19
485.772	536.19
485.99	533.19
486.209	536.19
486.427	527.19
486.645	549.19
486.863	557.19
487.081	589.19
487.299	558.19
487.517	568.19
487.735	571.19
487.953	570.19
488.171	563.19
488.389	541.19
488.607	578.19
488.825	549.19
489.043	583.19
489.261	560.19
489.479	579.19
489.696	585.19
489.914	572.19
490.132	594.19
490.35	583.19
490.568	590.19
490.786	595.19
491.003	604.19
491.221	630.19
491.439	636.19
491.657	634.19
491.874	652.19
492.092	669.19
492.31	655.19
492.527	642.19
492.745	635.19
492.963	638.19
493.18	644.19
493.398	652.19
493.615	693.19
493.833	681.19
494.05	667.19
494.268	673.19
494.485	676.19
494.703	668.19
494.92	672.19
495.138	679.19
495.355	675.19
495.573	667.19
495.79	687.19
496.008	650.19
496.225	671.19
496.442	660.19
496.66	667.19
496.877	644.19
497.094	666.19
497.312	683.19
497.529	685.19
497.746	671.19
497.963	693.19
498.181	691.19
498.398	698.19
498.615	716.19
498.832	725.19
499.049	730.19
499.267	732.19
499.484	751.19
499.701	769.19
499.918	812.19
500.135	800.19
500.352	827.19
500.569	854.19
500.786	844.19
501.003	862.19
501.22	852.19
501.437	799.19
501.654	831.19
501.871	781.19
