Data from 1989.PennyLincolnUp.Lamp.En5.5.200Scan.071819.P2_HRD10591_17-23-47-972.txt Node
Date: Thu Jul 18 17:23:47 EDT 2019
User: cochatt
Spectrometer: HR+D1059
Trigger mode: 1
Integration Time (sec): 1.000000E-1
Scans to average: 1
Electric dark correction enabled: true
Nonlinearity correction enabled: false
Boxcar width: 0
XAxis mode: Wavelengths
Number of Pixels in Spectrum: 2048
>>>>>Begin Spectral Data<<<<<
223.165	-20.38
223.4	-20.38
223.635	-20.38
223.869	-15.38
224.104	-23.38
224.338	-20.38
224.573	-13.38
224.808	-13.38
225.042	-6.38
225.277	-4.38
225.511	10.62
225.746	-7.38
225.98	12.62
226.215	7.62
226.449	14.62
226.683	26.62
226.918	30.62
227.152	21.62
227.387	28.62
227.621	44.62
227.856	33.62
228.09	38.62
228.324	39.62
228.559	49.62
228.793	76.62
229.027	84.62
229.262	116.62
229.496	100.62
229.73	143.62
229.964	163.62
230.199	139.62
230.433	118.62
230.667	110.62
230.901	120.62
231.136	114.62
231.37	110.62
231.604	114.62
231.838	107.62
232.072	99.62
232.306	104.62
232.541	125.62
232.775	129.62
233.009	112.62
233.243	121.62
233.477	100.62
233.711	127.62
233.945	114.62
234.179	120.62
234.413	117.62
234.647	124.62
234.881	115.62
235.115	120.62
235.349	124.62
235.583	134.62
235.817	124.62
236.051	117.62
236.285	119.62
236.519	121.62
236.753	124.62
236.987	149.62
237.221	187.62
237.455	230.62
237.689	184.62
237.922	152.62
238.156	132.62
238.39	138.62
238.624	120.62
238.858	131.62
239.091	130.62
239.325	126.62
239.559	115.62
239.793	118.62
240.027	134.62
240.26	149.62
240.494	164.62
240.728	140.62
240.961	142.62
241.195	143.62
241.429	148.62
241.662	142.62
241.896	134.62
242.13	136.62
242.363	132.62
242.597	139.62
242.83	141.62
243.064	134.62
243.298	129.62
243.531	123.62
243.765	134.62
243.998	148.62
244.232	134.62
244.465	138.62
244.699	149.62
244.932	140.62
245.166	154.62
245.399	171.62
245.633	152.62
245.866	142.62
246.099	162.62
246.333	151.62
246.566	148.62
246.8	172.62
247.033	134.62
247.266	158.62
247.5	182.62
247.733	183.62
247.966	172.62
248.2	194.62
248.433	179.62
248.666	186.62
248.899	187.62
249.133	202.62
249.366	227.62
249.599	196.62
249.832	193.62
250.066	196.62
250.299	193.62
250.532	207.62
250.765	213.62
250.998	222.62
251.231	246.62
251.465	224.62
251.698	228.62
251.931	215.62
252.164	216.62
252.397	207.62
252.63	198.62
252.863	217.62
253.096	219.62
253.329	229.62
253.562	240.62
253.795	234.62
254.028	233.62
254.261	242.62
254.494	228.62
254.727	266.62
254.96	289.62
255.193	297.62
255.426	266.62
255.659	247.62
255.892	252.62
256.124	240.62
256.357	226.62
256.59	227.62
256.823	227.62
257.056	223.62
257.289	214.62
257.521	215.62
257.754	210.62
257.987	218.62
258.22	244.62
258.452	221.62
258.685	219.62
258.918	219.62
259.151	209.62
259.383	242.62
259.616	234.62
259.849	250.62
260.081	260.62
260.314	259.62
260.547	282.62
260.779	286.62
261.012	248.62
261.244	260.62
261.477	244.62
261.71	220.62
261.942	246.62
262.175	260.62
262.407	237.62
262.64	230.62
262.872	226.62
263.105	222.62
263.337	224.62
263.57	239.62
263.802	235.62
264.035	231.62
264.267	210.62
264.499	224.62
264.732	223.62
264.964	235.62
265.197	225.62
265.429	228.62
265.661	232.62
265.894	246.62
266.126	229.62
266.358	226.62
266.591	233.62
266.823	239.62
267.055	236.62
267.287	243.62
267.52	248.62
267.752	231.62
267.984	245.62
268.216	254.62
268.448	255.62
268.681	242.62
268.913	260.62
269.145	291.62
269.377	278.62
269.609	287.62
269.841	278.62
270.073	300.62
270.306	303.62
270.538	352.62
270.77	337.62
271.002	322.62
271.234	312.62
271.466	334.62
271.698	331.62
271.93	338.62
272.162	336.62
272.394	335.62
272.626	328.62
272.858	317.62
273.09	302.62
273.322	287.62
273.553	294.62
273.785	290.62
274.017	293.62
274.249	287.62
274.481	298.62
274.713	292.62
274.945	271.62
275.176	297.62
275.408	285.62
275.64	283.62
275.872	268.62
276.104	283.62
276.335	279.62
276.567	275.62
276.799	297.62
277.031	320.62
277.262	327.62
277.494	337.62
277.726	310.62
277.957	318.62
278.189	283.62
278.421	288.62
278.652	293.62
278.884	282.62
279.115	290.62
279.347	284.62
279.579	267.62
279.81	281.62
280.042	289.62
280.273	272.62
280.505	284.62
280.736	277.62
280.968	287.62
281.199	266.62
281.431	290.62
281.662	285.62
281.894	280.62
282.125	287.62
282.356	314.62
282.588	322.62
282.819	328.62
283.051	291.62
283.282	312.62
283.513	308.62
283.745	284.62
283.976	306.62
284.207	282.62
284.439	279.62
284.67	304.62
284.901	300.62
285.132	293.62
285.364	278.62
285.595	303.62
285.826	291.62
286.057	300.62
286.288	290.62
286.52	316.62
286.751	304.62
286.982	306.62
287.213	306.62
287.444	293.62
287.675	312.62
287.906	293.62
288.138	289.62
288.369	308.62
288.6	332.62
288.831	292.62
289.062	304.62
289.293	307.62
289.524	311.62
289.755	318.62
289.986	298.62
290.217	301.62
290.448	316.62
290.679	307.62
290.91	317.62
291.141	305.62
291.371	296.62
291.602	309.62
291.833	298.62
292.064	311.62
292.295	290.62
292.526	318.62
292.757	318.62
292.987	290.62
293.218	314.62
293.449	320.62
293.68	298.62
293.91	292.62
294.141	291.62
294.372	304.62
294.603	310.62
294.833	315.62
295.064	294.62
295.295	318.62
295.525	307.62
295.756	319.62
295.987	323.62
296.217	353.62
296.448	326.62
296.679	328.62
296.909	301.62
297.14	310.62
297.37	328.62
297.601	311.62
297.831	291.62
298.062	318.62
298.292	313.62
298.523	316.62
298.753	337.62
298.984	339.62
299.214	338.62
299.445	341.62
299.675	330.62
299.905	340.62
300.136	314.62
300.366	316.62
300.597	328.62
300.827	322.62
301.057	339.62
301.288	355.62
301.518	333.62
301.748	334.62
301.979	340.62
302.209	345.62
302.439	358.62
302.669	342.62
302.9	362.62
303.13	337.62
303.36	332.62
303.59	332.62
303.82	353.62
304.051	350.62
304.281	339.62
304.511	340.62
304.741	332.62
304.971	343.62
305.201	331.62
305.431	331.62
305.661	333.62
305.891	358.62
306.121	358.62
306.352	344.62
306.582	360.62
306.812	360.62
307.042	351.62
307.272	358.62
307.502	334.62
307.731	327.62
307.961	349.62
308.191	362.62
308.421	358.62
308.651	351.62
308.881	342.62
309.111	356.62
309.341	360.62
309.571	364.62
309.8	375.62
310.03	384.62
310.26	400.62
310.49	401.62
310.72	409.62
310.949	426.62
311.179	407.62
311.409	411.62
311.639	384.62
311.868	374.62
312.098	374.62
312.328	425.62
312.557	450.62
312.787	421.62
313.017	430.62
313.246	433.62
313.476	391.62
313.706	391.62
313.935	413.62
314.165	417.62
314.394	417.62
314.624	423.62
314.853	404.62
315.083	422.62
315.312	390.62
315.542	406.62
315.771	400.62
316.001	405.62
316.23	410.62
316.46	392.62
316.689	388.62
316.919	391.62
317.148	426.62
317.377	438.62
317.607	391.62
317.836	396.62
318.065	410.62
318.295	416.62
318.524	395.62
318.753	387.62
318.983	425.62
319.212	405.62
319.441	410.62
319.67	425.62
319.9	405.62
320.129	419.62
320.358	398.62
320.587	414.62
320.816	402.62
321.046	425.62
321.275	425.62
321.504	427.62
321.733	423.62
321.962	422.62
322.191	456.62
322.42	468.62
322.649	462.62
322.878	464.62
323.108	500.62
323.337	514.62
323.566	545.62
323.795	586.62
324.024	619.62
324.253	748.62
324.482	1065.62
324.71	1628.62
324.939	2312.62
325.168	2082.62
325.397	1051.62
325.626	715.62
325.855	597.62
326.084	571.62
326.313	546.62
326.542	553.62
326.77	587.62
326.999	678.62
327.228	942.62
327.457	1472.62
327.686	1759.62
327.914	1131.62
328.143	741.62
328.372	647.62
328.6	624.62
328.829	569.62
329.058	594.62
329.287	618.62
329.515	586.62
329.744	540.62
329.972	512.62
330.201	521.62
330.43	541.62
330.658	590.62
330.887	623.62
331.115	618.62
331.344	528.62
331.572	496.62
331.801	496.62
332.03	497.62
332.258	478.62
332.486	469.62
332.715	475.62
332.943	466.62
333.172	447.62
333.4	465.62
333.629	468.62
333.857	469.62
334.085	470.62
334.314	460.62
334.542	456.62
334.771	479.62
334.999	465.62
335.227	451.62
335.455	471.62
335.684	450.62
335.912	468.62
336.14	457.62
336.369	463.62
336.597	464.62
336.825	471.62
337.053	458.62
337.281	449.62
337.51	440.62
337.738	482.62
337.966	463.62
338.194	439.62
338.422	461.62
338.65	463.62
338.878	441.62
339.106	443.62
339.334	449.62
339.562	456.62
339.79	441.62
340.018	440.62
340.246	438.62
340.474	453.62
340.702	443.62
340.93	440.62
341.158	450.62
341.386	450.62
341.614	457.62
341.842	445.62
342.07	450.62
342.298	437.62
342.526	422.62
342.754	415.62
342.981	439.62
343.209	418.62
343.437	442.62
343.665	438.62
343.893	443.62
344.12	475.62
344.348	455.62
344.576	442.62
344.804	452.62
345.031	456.62
345.259	462.62
345.487	436.62
345.714	438.62
345.942	441.62
346.17	424.62
346.397	446.62
346.625	442.62
346.853	425.62
347.08	421.62
347.308	407.62
347.535	432.62
347.763	443.62
347.99	436.62
348.218	426.62
348.445	458.62
348.673	453.62
348.9	437.62
349.128	436.62
349.355	423.62
349.583	410.62
349.81	416.62
350.037	408.62
350.265	400.62
350.492	399.62
350.72	420.62
350.947	439.62
351.174	443.62
351.402	427.62
351.629	424.62
351.856	430.62
352.083	430.62
352.311	432.62
352.538	427.62
352.765	432.62
352.992	447.62
353.22	430.62
353.447	408.62
353.674	405.62
353.901	406.62
354.128	402.62
354.355	387.62
354.583	392.62
354.81	407.62
355.037	402.62
355.264	379.62
355.491	397.62
355.718	399.62
355.945	386.62
356.172	408.62
356.399	388.62
356.626	376.62
356.853	391.62
357.08	386.62
357.307	382.62
357.534	396.62
357.761	400.62
357.988	388.62
358.215	406.62
358.441	399.62
358.668	396.62
358.895	409.62
359.122	393.62
359.349	406.62
359.576	397.62
359.802	438.62
360.029	454.62
360.256	498.62
360.483	454.62
360.709	433.62
360.936	427.62
361.163	420.62
361.39	427.62
361.616	425.62
361.843	409.62
362.07	406.62
362.296	444.62
362.523	410.62
362.749	405.62
362.976	417.62
363.203	412.62
363.429	378.62
363.656	422.62
363.882	404.62
364.109	405.62
364.335	376.62
364.562	407.62
364.788	404.62
365.015	411.62
365.241	391.62
365.468	422.62
365.694	407.62
365.92	410.62
366.147	393.62
366.373	388.62
366.599	394.62
366.826	392.62
367.052	397.62
367.278	367.62
367.505	396.62
367.731	377.62
367.957	392.62
368.184	395.62
368.41	397.62
368.636	412.62
368.862	420.62
369.089	430.62
369.315	392.62
369.541	382.62
369.767	389.62
369.993	401.62
370.219	398.62
370.445	399.62
370.672	379.62
370.898	389.62
371.124	395.62
371.35	392.62
371.576	394.62
371.802	393.62
372.028	377.62
372.254	401.62
372.48	387.62
372.706	392.62
372.932	395.62
373.158	395.62
373.384	388.62
373.61	388.62
373.835	397.62
374.061	380.62
374.287	429.62
374.513	396.62
374.739	392.62
374.965	400.62
375.191	404.62
375.416	379.62
375.642	407.62
375.868	394.62
376.094	382.62
376.319	406.62
376.545	397.62
376.771	390.62
376.997	387.62
377.222	382.62
377.448	391.62
377.674	399.62
377.899	405.62
378.125	391.62
378.35	389.62
378.576	378.62
378.802	389.62
379.027	385.62
379.253	399.62
379.478	378.62
379.704	408.62
379.929	377.62
380.155	370.62
380.38	392.62
380.606	391.62
380.831	402.62
381.057	388.62
381.282	390.62
381.507	386.62
381.733	378.62
381.958	382.62
382.184	403.62
382.409	392.62
382.634	382.62
382.86	392.62
383.085	388.62
383.31	387.62
383.535	426.62
383.761	394.62
383.986	388.62
384.211	366.62
384.436	392.62
384.662	384.62
384.887	396.62
385.112	392.62
385.337	398.62
385.562	381.62
385.787	415.62
386.013	426.62
386.238	412.62
386.463	419.62
386.688	408.62
386.913	415.62
387.138	408.62
387.363	414.62
387.588	415.62
387.813	422.62
388.038	411.62
388.263	401.62
388.488	403.62
388.713	407.62
388.938	418.62
389.163	406.62
389.387	414.62
389.612	400.62
389.837	416.62
390.062	421.62
390.287	403.62
390.512	413.62
390.736	412.62
390.961	398.62
391.186	414.62
391.411	387.62
391.636	416.62
391.86	411.62
392.085	435.62
392.31	424.62
392.534	407.62
392.759	416.62
392.984	405.62
393.208	422.62
393.433	406.62
393.658	401.62
393.882	415.62
394.107	407.62
394.331	412.62
394.556	415.62
394.78	430.62
395.005	407.62
395.229	403.62
395.454	420.62
395.678	417.62
395.903	442.62
396.127	464.62
396.352	462.62
396.576	442.62
396.801	432.62
397.025	416.62
397.249	444.62
397.474	447.62
397.698	442.62
397.922	463.62
398.147	473.62
398.371	451.62
398.595	450.62
398.82	449.62
399.044	464.62
399.268	482.62
399.492	500.62
399.717	506.62
399.941	536.62
400.165	560.62
400.389	588.62
400.613	536.62
400.837	484.62
401.062	483.62
401.286	473.62
401.51	436.62
401.734	464.62
401.958	442.62
402.182	472.62
402.406	476.62
402.63	476.62
402.854	482.62
403.078	482.62
403.302	506.62
403.526	488.62
403.75	476.62
403.974	486.62
404.198	474.62
404.422	486.62
404.645	486.62
404.869	471.62
405.093	492.62
405.317	514.62
405.541	536.62
405.765	508.62
405.988	501.62
406.212	492.62
406.436	522.62
406.66	537.62
406.883	523.62
407.107	552.62
407.331	595.62
407.555	650.62
407.778	638.62
408.002	583.62
408.226	520.62
408.449	519.62
408.673	539.62
408.896	567.62
409.12	609.62
409.344	574.62
409.567	506.62
409.791	469.62
410.014	460.62
410.238	466.62
410.461	472.62
410.685	512.62
410.908	502.62
411.132	533.62
411.355	583.62
411.578	555.62
411.802	482.62
412.025	483.62
412.249	480.62
412.472	468.62
412.695	489.62
412.919	472.62
413.142	466.62
413.365	465.62
413.589	479.62
413.812	454.62
414.035	464.62
414.258	454.62
414.482	443.62
414.705	452.62
414.928	440.62
415.151	439.62
415.374	420.62
415.597	442.62
415.821	450.62
416.044	463.62
416.267	464.62
416.49	443.62
416.713	428.62
416.936	445.62
417.159	448.62
417.382	443.62
417.605	452.62
417.828	438.62
418.051	450.62
418.274	460.62
418.497	442.62
418.72	447.62
418.943	446.62
419.166	473.62
419.389	512.62
419.611	484.62
419.834	457.62
420.057	481.62
420.28	465.62
420.503	437.62
420.726	466.62
420.948	489.62
421.171	515.62
421.394	567.62
421.617	504.62
421.839	475.62
422.062	458.62
422.285	521.62
422.507	558.62
422.73	632.62
422.953	599.62
423.175	513.62
423.398	489.62
423.621	526.62
423.843	502.62
424.066	519.62
424.288	514.62
424.511	530.62
424.733	610.62
424.956	693.62
425.178	654.62
425.401	632.62
425.623	670.62
425.846	582.62
426.068	521.62
426.291	515.62
426.513	508.62
426.735	528.62
426.958	574.62
427.18	609.62
427.402	748.62
427.625	876.62
427.847	740.62
428.069	624.62
428.292	563.62
428.514	556.62
428.736	510.62
428.958	481.62
429.181	473.62
429.403	469.62
429.625	512.62
429.847	546.62
430.069	588.62
430.292	586.62
430.514	518.62
430.736	471.62
430.958	474.62
431.18	463.62
431.402	470.62
431.624	450.62
431.846	448.62
432.068	450.62
432.29	443.62
432.512	441.62
432.734	476.62
432.956	457.62
433.178	452.62
433.4	480.62
433.622	459.62
433.844	467.62
434.066	435.62
434.287	474.62
434.509	454.62
434.731	462.62
434.953	468.62
435.175	474.62
435.397	521.62
435.618	537.62
435.84	552.62
436.062	662.62
436.284	744.62
436.505	606.62
436.727	536.62
436.949	505.62
437.17	485.62
437.392	475.62
437.614	499.62
437.835	550.62
438.057	621.62
438.278	751.62
438.5	724.62
438.721	804.62
438.943	768.62
439.165	576.62
439.386	548.62
439.608	559.62
439.829	532.62
440.05	564.62
440.272	604.62
440.493	572.62
440.715	513.62
440.936	495.62
441.158	484.62
441.379	479.62
441.6	488.62
441.822	511.62
442.043	546.62
442.264	630.62
442.486	683.62
442.707	558.62
442.928	546.62
443.149	562.62
443.371	569.62
443.592	606.62
443.813	681.62
444.034	758.62
444.255	617.62
444.476	536.62
444.698	526.62
444.919	509.62
445.14	612.62
445.361	586.62
445.582	564.62
445.803	638.62
446.024	717.62
446.245	715.62
446.466	690.62
446.687	580.62
446.908	527.62
447.129	490.62
447.35	488.62
447.571	454.62
447.792	488.62
448.013	479.62
448.234	514.62
448.455	541.62
448.675	667.62
448.896	776.62
449.117	689.62
449.338	642.62
449.559	731.62
449.779	836.62
450	670.62
450.221	553.62
450.442	509.62
450.662	467.62
450.883	486.62
451.104	487.62
451.324	472.62
451.545	453.62
451.766	423.62
451.986	431.62
452.207	410.62
452.428	424.62
452.648	416.62
452.869	426.62
453.089	452.62
453.31	456.62
453.53	425.62
453.751	448.62
453.971	439.62
454.192	445.62
454.412	420.62
454.633	439.62
454.853	410.62
455.073	448.62
455.294	462.62
455.514	532.62
455.734	522.62
455.955	446.62
456.175	410.62
456.395	399.62
456.616	390.62
456.836	410.62
457.056	415.62
457.276	376.62
457.497	422.62
457.717	415.62
457.937	407.62
458.157	417.62
458.377	434.62
458.598	443.62
458.818	486.62
459.038	579.62
459.258	597.62
459.478	520.62
459.698	459.62
459.918	471.62
460.138	434.62
460.358	446.62
460.578	454.62
460.798	442.62
461.018	440.62
461.238	456.62
461.458	435.62
461.678	426.62
461.898	436.62
462.118	455.62
462.338	457.62
462.558	448.62
462.777	483.62
462.997	478.62
463.217	472.62
463.437	516.62
463.657	485.62
463.876	467.62
464.096	477.62
464.316	473.62
464.536	485.62
464.755	499.62
464.975	491.62
465.195	522.62
465.414	570.62
465.634	522.62
465.854	471.62
466.073	449.62
466.293	446.62
466.512	422.62
466.732	445.62
466.951	424.62
467.171	435.62
467.391	436.62
467.61	453.62
467.829	460.62
468.049	451.62
468.268	426.62
468.488	413.62
468.707	415.62
468.927	418.62
469.146	416.62
469.365	431.62
469.585	408.62
469.804	426.62
470.023	436.62
470.243	446.62
470.462	416.62
470.681	468.62
470.901	440.62
471.12	418.62
471.339	433.62
471.558	449.62
471.777	426.62
471.997	420.62
472.216	415.62
472.435	406.62
472.654	436.62
472.873	421.62
473.092	436.62
473.311	438.62
473.53	437.62
473.749	447.62
473.968	501.62
474.187	595.62
474.406	614.62
474.625	486.62
474.844	467.62
475.063	445.62
475.282	439.62
475.501	441.62
475.72	462.62
475.939	446.62
476.158	437.62
476.377	461.62
476.596	461.62
476.814	470.62
477.033	469.62
477.252	484.62
477.471	464.62
477.69	436.62
477.908	457.62
478.127	484.62
478.346	465.62
478.564	478.62
478.783	470.62
479.002	504.62
479.22	487.62
479.439	514.62
479.658	525.62
479.876	522.62
480.095	517.62
480.313	539.62
480.532	537.62
480.751	527.62
480.969	522.62
481.188	571.62
481.406	531.62
481.624	527.62
481.843	537.62
482.061	523.62
482.28	520.62
482.498	488.62
482.717	500.62
482.935	538.62
483.153	514.62
483.372	491.62
483.59	513.62
483.808	528.62
484.027	514.62
484.245	534.62
484.463	522.62
484.681	523.62
484.9	496.62
485.118	524.62
485.336	516.62
485.554	535.62
485.772	519.62
485.99	544.62
486.209	506.62
486.427	542.62
486.645	551.62
486.863	560.62
487.081	546.62
487.299	564.62
487.517	551.62
487.735	560.62
487.953	540.62
488.171	567.62
488.389	547.62
488.607	556.62
488.825	550.62
489.043	534.62
489.261	572.62
489.479	560.62
489.696	577.62
489.914	541.62
490.132	575.62
490.35	581.62
490.568	579.62
490.786	559.62
491.003	581.62
491.221	588.62
491.439	612.62
491.657	617.62
491.874	630.62
492.092	632.62
492.31	618.62
492.527	640.62
492.745	635.62
492.963	655.62
493.18	648.62
493.398	620.62
493.615	640.62
493.833	637.62
494.05	642.62
494.268	651.62
494.485	631.62
494.703	658.62
494.92	645.62
495.138	657.62
495.355	671.62
495.573	659.62
495.79	647.62
496.008	664.62
496.225	630.62
496.442	648.62
496.66	655.62
496.877	652.62
497.094	667.62
497.312	674.62
497.529	659.62
497.746	690.62
497.963	676.62
498.181	723.62
498.398	708.62
498.615	729.62
498.832	722.62
499.049	763.62
499.267	748.62
499.484	767.62
499.701	806.62
499.918	784.62
500.135	807.62
500.352	838.62
500.569	858.62
500.786	859.62
501.003	878.62
501.22	853.62
501.437	830.62
501.654	836.62
501.871	826.62
