Data from 1989.PennyLincolnUp.Lamp.En5.5.200Scan.071819.P2_HRD10591_17-24-08-973.txt Node
Date: Thu Jul 18 17:24:08 EDT 2019
User: cochatt
Spectrometer: HR+D1059
Trigger mode: 1
Integration Time (sec): 1.000000E-1
Scans to average: 1
Electric dark correction enabled: true
Nonlinearity correction enabled: false
Boxcar width: 0
XAxis mode: Wavelengths
Number of Pixels in Spectrum: 2048
>>>>>Begin Spectral Data<<<<<
223.165	-10.38
223.4	-10.38
223.635	-10.38
223.869	-22.38
224.104	-14.38
224.338	-4.38
224.573	-12.38
224.808	-4.38
225.042	-6.38
225.277	-14.38
225.511	-8.38
225.746	1.62
225.98	6.62
226.215	5.62
226.449	23.62
226.683	21.62
226.918	16.62
227.152	21.62
227.387	20.62
227.621	35.62
227.856	27.62
228.09	50.62
228.324	41.62
228.559	52.62
228.793	72.62
229.027	98.62
229.262	117.62
229.496	113.62
229.73	141.62
229.964	155.62
230.199	134.62
230.433	119.62
230.667	112.62
230.901	106.62
231.136	107.62
231.37	116.62
231.604	111.62
231.838	116.62
232.072	107.62
232.306	106.62
232.541	120.62
232.775	122.62
233.009	111.62
233.243	116.62
233.477	103.62
233.711	108.62
233.945	123.62
234.179	107.62
234.413	121.62
234.647	122.62
234.881	110.62
235.115	131.62
235.349	124.62
235.583	113.62
235.817	125.62
236.051	137.62
236.285	123.62
236.519	119.62
236.753	131.62
236.987	143.62
237.221	184.62
237.455	240.62
237.689	176.62
237.922	137.62
238.156	128.62
238.39	128.62
238.624	130.62
238.858	123.62
239.091	127.62
239.325	125.62
239.559	127.62
239.793	127.62
240.027	140.62
240.26	148.62
240.494	152.62
240.728	166.62
240.961	149.62
241.195	147.62
241.429	149.62
241.662	136.62
241.896	138.62
242.13	127.62
242.363	134.62
242.597	124.62
242.83	140.62
243.064	146.62
243.298	131.62
243.531	144.62
243.765	154.62
243.998	142.62
244.232	141.62
244.465	142.62
244.699	129.62
244.932	142.62
245.166	139.62
245.399	138.62
245.633	140.62
245.866	151.62
246.099	161.62
246.333	146.62
246.566	152.62
246.8	149.62
247.033	160.62
247.266	137.62
247.5	172.62
247.733	165.62
247.966	182.62
248.2	161.62
248.433	176.62
248.666	190.62
248.899	168.62
249.133	200.62
249.366	220.62
249.599	212.62
249.832	186.62
250.066	197.62
250.299	186.62
250.532	205.62
250.765	204.62
250.998	218.62
251.231	236.62
251.465	220.62
251.698	215.62
251.931	210.62
252.164	190.62
252.397	209.62
252.63	204.62
252.863	215.62
253.096	221.62
253.329	225.62
253.562	218.62
253.795	229.62
254.028	241.62
254.261	219.62
254.494	245.62
254.727	263.62
254.96	289.62
255.193	291.62
255.426	243.62
255.659	234.62
255.892	227.62
256.124	226.62
256.357	240.62
256.59	238.62
256.823	221.62
257.056	212.62
257.289	239.62
257.521	211.62
257.754	228.62
257.987	215.62
258.22	213.62
258.452	223.62
258.685	225.62
258.918	225.62
259.151	218.62
259.383	252.62
259.616	239.62
259.849	211.62
260.081	243.62
260.314	287.62
260.547	275.62
260.779	264.62
261.012	235.62
261.244	263.62
261.477	249.62
261.71	244.62
261.942	239.62
262.175	251.62
262.407	259.62
262.64	229.62
262.872	224.62
263.105	227.62
263.337	236.62
263.57	235.62
263.802	218.62
264.035	225.62
264.267	216.62
264.499	218.62
264.732	231.62
264.964	227.62
265.197	224.62
265.429	220.62
265.661	215.62
265.894	227.62
266.126	221.62
266.358	211.62
266.591	218.62
266.823	227.62
267.055	231.62
267.287	241.62
267.52	241.62
267.752	239.62
267.984	259.62
268.216	241.62
268.448	255.62
268.681	260.62
268.913	245.62
269.145	283.62
269.377	290.62
269.609	296.62
269.841	281.62
270.073	290.62
270.306	303.62
270.538	321.62
270.77	341.62
271.002	326.62
271.234	311.62
271.466	325.62
271.698	328.62
271.93	348.62
272.162	324.62
272.394	334.62
272.626	327.62
272.858	295.62
273.09	317.62
273.322	303.62
273.553	271.62
273.785	273.62
274.017	282.62
274.249	275.62
274.481	273.62
274.713	268.62
274.945	277.62
275.176	282.62
275.408	290.62
275.64	278.62
275.872	276.62
276.104	277.62
276.335	280.62
276.567	278.62
276.799	321.62
277.031	328.62
277.262	329.62
277.494	346.62
277.726	309.62
277.957	316.62
278.189	293.62
278.421	287.62
278.652	289.62
278.884	287.62
279.115	275.62
279.347	275.62
279.579	264.62
279.81	269.62
280.042	269.62
280.273	255.62
280.505	295.62
280.736	293.62
280.968	263.62
281.199	273.62
281.431	291.62
281.662	295.62
281.894	285.62
282.125	296.62
282.356	303.62
282.588	307.62
282.819	314.62
283.051	307.62
283.282	279.62
283.513	278.62
283.745	288.62
283.976	294.62
284.207	300.62
284.439	311.62
284.67	298.62
284.901	288.62
285.132	297.62
285.364	290.62
285.595	270.62
285.826	279.62
286.057	294.62
286.288	291.62
286.52	291.62
286.751	301.62
286.982	291.62
287.213	288.62
287.444	294.62
287.675	282.62
287.906	325.62
288.138	301.62
288.369	343.62
288.6	323.62
288.831	298.62
289.062	292.62
289.293	311.62
289.524	295.62
289.755	288.62
289.986	294.62
290.217	297.62
290.448	307.62
290.679	294.62
290.91	305.62
291.141	287.62
291.371	305.62
291.602	286.62
291.833	299.62
292.064	292.62
292.295	287.62
292.526	288.62
292.757	300.62
292.987	283.62
293.218	293.62
293.449	308.62
293.68	295.62
293.91	319.62
294.141	287.62
294.372	308.62
294.603	305.62
294.833	307.62
295.064	303.62
295.295	308.62
295.525	294.62
295.756	309.62
295.987	320.62
296.217	341.62
296.448	355.62
296.679	305.62
296.909	291.62
297.14	311.62
297.37	313.62
297.601	311.62
297.831	299.62
298.062	305.62
298.292	317.62
298.523	303.62
298.753	312.62
298.984	315.62
299.214	315.62
299.445	328.62
299.675	313.62
299.905	324.62
300.136	327.62
300.366	329.62
300.597	311.62
300.827	328.62
301.057	329.62
301.288	331.62
301.518	348.62
301.748	336.62
301.979	313.62
302.209	340.62
302.439	305.62
302.669	344.62
302.9	332.62
303.13	331.62
303.36	333.62
303.59	353.62
303.82	346.62
304.051	329.62
304.281	329.62
304.511	325.62
304.741	331.62
304.971	328.62
305.201	339.62
305.431	355.62
305.661	338.62
305.891	344.62
306.121	341.62
306.352	331.62
306.582	334.62
306.812	330.62
307.042	331.62
307.272	337.62
307.502	352.62
307.731	348.62
307.961	338.62
308.191	346.62
308.421	345.62
308.651	354.62
308.881	352.62
309.111	357.62
309.341	374.62
309.571	376.62
309.8	382.62
310.03	369.62
310.26	394.62
310.49	375.62
310.72	401.62
310.949	410.62
311.179	404.62
311.409	407.62
311.639	394.62
311.868	383.62
312.098	387.62
312.328	410.62
312.557	419.62
312.787	425.62
313.017	444.62
313.246	383.62
313.476	395.62
313.706	383.62
313.935	395.62
314.165	404.62
314.394	401.62
314.624	414.62
314.853	405.62
315.083	419.62
315.312	401.62
315.542	387.62
315.771	404.62
316.001	373.62
316.23	361.62
316.46	384.62
316.689	375.62
316.919	407.62
317.148	400.62
317.377	395.62
317.607	413.62
317.836	400.62
318.065	381.62
318.295	385.62
318.524	410.62
318.753	383.62
318.983	391.62
319.212	408.62
319.441	413.62
319.67	401.62
319.9	415.62
320.129	391.62
320.358	400.62
320.587	415.62
320.816	411.62
321.046	423.62
321.275	420.62
321.504	422.62
321.733	405.62
321.962	415.62
322.191	459.62
322.42	437.62
322.649	477.62
322.878	483.62
323.108	463.62
323.337	512.62
323.566	518.62
323.795	584.62
324.024	615.62
324.253	753.62
324.482	1086.62
324.71	1625.62
324.939	2374.62
325.168	2033.62
325.397	1065.62
325.626	724.62
325.855	602.62
326.084	563.62
326.313	544.62
326.542	517.62
326.77	604.62
326.999	691.62
327.228	935.62
327.457	1411.62
327.686	1739.62
327.914	1199.62
328.143	736.62
328.372	679.62
328.6	619.62
328.829	570.62
329.058	586.62
329.287	578.62
329.515	573.62
329.744	539.62
329.972	497.62
330.201	530.62
330.43	553.62
330.658	577.62
330.887	633.62
331.115	606.62
331.344	545.62
331.572	495.62
331.801	485.62
332.03	515.62
332.258	467.62
332.486	445.62
332.715	479.62
332.943	437.62
333.172	428.62
333.4	453.62
333.629	455.62
333.857	480.62
334.085	459.62
334.314	471.62
334.542	453.62
334.771	479.62
334.999	483.62
335.227	453.62
335.455	455.62
335.684	441.62
335.912	455.62
336.14	455.62
336.369	462.62
336.597	461.62
336.825	455.62
337.053	458.62
337.281	451.62
337.51	428.62
337.738	436.62
337.966	442.62
338.194	447.62
338.422	460.62
338.65	455.62
338.878	448.62
339.106	426.62
339.334	441.62
339.562	437.62
339.79	407.62
340.018	435.62
340.246	450.62
340.474	454.62
340.702	444.62
340.93	442.62
341.158	422.62
341.386	435.62
341.614	437.62
341.842	446.62
342.07	411.62
342.298	444.62
342.526	422.62
342.754	431.62
342.981	416.62
343.209	419.62
343.437	414.62
343.665	433.62
343.893	446.62
344.12	445.62
344.348	421.62
344.576	452.62
344.804	438.62
345.031	436.62
345.259	477.62
345.487	451.62
345.714	450.62
345.942	428.62
346.17	423.62
346.397	407.62
346.625	424.62
346.853	414.62
347.08	421.62
347.308	437.62
347.535	422.62
347.763	433.62
347.99	447.62
348.218	448.62
348.445	429.62
348.673	409.62
348.9	419.62
349.128	428.62
349.355	402.62
349.583	407.62
349.81	402.62
350.037	408.62
350.265	416.62
350.492	404.62
350.72	403.62
350.947	423.62
351.174	449.62
351.402	435.62
351.629	411.62
351.856	433.62
352.083	447.62
352.311	403.62
352.538	444.62
352.765	441.62
352.992	447.62
353.22	434.62
353.447	426.62
353.674	415.62
353.901	409.62
354.128	386.62
354.355	385.62
354.583	394.62
354.81	382.62
355.037	383.62
355.264	387.62
355.491	385.62
355.718	380.62
355.945	378.62
356.172	374.62
356.399	382.62
356.626	378.62
356.853	386.62
357.08	390.62
357.307	382.62
357.534	400.62
357.761	395.62
357.988	386.62
358.215	384.62
358.441	415.62
358.668	368.62
358.895	386.62
359.122	391.62
359.349	439.62
359.576	419.62
359.802	424.62
360.029	452.62
360.256	486.62
360.483	453.62
360.709	442.62
360.936	423.62
361.163	409.62
361.39	390.62
361.616	410.62
361.843	397.62
362.07	408.62
362.296	417.62
362.523	424.62
362.749	423.62
362.976	411.62
363.203	404.62
363.429	400.62
363.656	409.62
363.882	417.62
364.109	389.62
364.335	408.62
364.562	377.62
364.788	408.62
365.015	408.62
365.241	402.62
365.468	418.62
365.694	404.62
365.92	396.62
366.147	387.62
366.373	391.62
366.599	378.62
366.826	371.62
367.052	396.62
367.278	390.62
367.505	395.62
367.731	386.62
367.957	390.62
368.184	395.62
368.41	402.62
368.636	383.62
368.862	412.62
369.089	376.62
369.315	392.62
369.541	388.62
369.767	380.62
369.993	393.62
370.219	376.62
370.445	395.62
370.672	385.62
370.898	381.62
371.124	374.62
371.35	400.62
371.576	367.62
371.802	377.62
372.028	382.62
372.254	390.62
372.48	407.62
372.706	388.62
372.932	391.62
373.158	379.62
373.384	392.62
373.61	376.62
373.835	380.62
374.061	380.62
374.287	375.62
374.513	389.62
374.739	383.62
374.965	401.62
375.191	395.62
375.416	392.62
375.642	400.62
375.868	373.62
376.094	387.62
376.319	378.62
376.545	377.62
376.771	395.62
376.997	371.62
377.222	391.62
377.448	384.62
377.674	377.62
377.899	379.62
378.125	360.62
378.35	385.62
378.576	377.62
378.802	374.62
379.027	355.62
379.253	377.62
379.478	375.62
379.704	390.62
379.929	393.62
380.155	367.62
380.38	379.62
380.606	377.62
380.831	384.62
381.057	377.62
381.282	371.62
381.507	382.62
381.733	378.62
381.958	374.62
382.184	383.62
382.409	390.62
382.634	379.62
382.86	391.62
383.085	380.62
383.31	375.62
383.535	395.62
383.761	374.62
383.986	393.62
384.211	383.62
384.436	415.62
384.662	394.62
384.887	388.62
385.112	399.62
385.337	391.62
385.562	410.62
385.787	403.62
386.013	429.62
386.238	404.62
386.463	395.62
386.688	399.62
386.913	395.62
387.138	392.62
387.363	421.62
387.588	416.62
387.813	396.62
388.038	401.62
388.263	407.62
388.488	405.62
388.713	420.62
388.938	400.62
389.163	392.62
389.387	403.62
389.612	398.62
389.837	412.62
390.062	390.62
390.287	425.62
390.512	403.62
390.736	404.62
390.961	421.62
391.186	408.62
391.411	397.62
391.636	422.62
391.86	415.62
392.085	419.62
392.31	408.62
392.534	408.62
392.759	412.62
392.984	421.62
393.208	416.62
393.433	401.62
393.658	395.62
393.882	379.62
394.107	377.62
394.331	387.62
394.556	403.62
394.78	417.62
395.005	394.62
395.229	405.62
395.454	407.62
395.678	412.62
395.903	429.62
396.127	450.62
396.352	450.62
396.576	417.62
396.801	401.62
397.025	416.62
397.249	422.62
397.474	424.62
397.698	418.62
397.922	428.62
398.147	442.62
398.371	455.62
398.595	465.62
398.82	453.62
399.044	468.62
399.268	465.62
399.492	501.62
399.717	512.62
399.941	513.62
400.165	549.62
400.389	570.62
400.613	512.62
400.837	479.62
401.062	487.62
401.286	464.62
401.51	447.62
401.734	448.62
401.958	463.62
402.182	469.62
402.406	484.62
402.63	462.62
402.854	473.62
403.078	470.62
403.302	464.62
403.526	457.62
403.75	457.62
403.974	467.62
404.198	447.62
404.422	461.62
404.645	466.62
404.869	452.62
405.093	488.62
405.317	522.62
405.541	525.62
405.765	502.62
405.988	484.62
406.212	513.62
406.436	553.62
406.66	541.62
406.883	503.62
407.107	533.62
407.331	577.62
407.555	631.62
407.778	628.62
408.002	575.62
408.226	535.62
408.449	523.62
408.673	521.62
408.896	531.62
409.12	613.62
409.344	551.62
409.567	501.62
409.791	487.62
410.014	468.62
410.238	469.62
410.461	451.62
410.685	484.62
410.908	479.62
411.132	514.62
411.355	555.62
411.578	549.62
411.802	474.62
412.025	455.62
412.249	450.62
412.472	461.62
412.695	489.62
412.919	476.62
413.142	461.62
413.365	459.62
413.589	473.62
413.812	449.62
414.035	461.62
414.258	443.62
414.482	452.62
414.705	443.62
414.928	424.62
415.151	419.62
415.374	427.62
415.597	450.62
415.821	443.62
416.044	433.62
416.267	431.62
416.49	436.62
416.713	423.62
416.936	441.62
417.159	425.62
417.382	450.62
417.605	449.62
417.828	464.62
418.051	457.62
418.274	461.62
418.497	424.62
418.72	451.62
418.943	442.62
419.166	467.62
419.389	473.62
419.611	475.62
419.834	474.62
420.057	476.62
420.28	459.62
420.503	459.62
420.726	441.62
420.948	460.62
421.171	519.62
421.394	545.62
421.617	493.62
421.839	454.62
422.062	473.62
422.285	485.62
422.507	541.62
422.73	612.62
422.953	605.62
423.175	506.62
423.398	513.62
423.621	481.62
423.843	536.62
424.066	503.62
424.288	518.62
424.511	537.62
424.733	590.62
424.956	654.62
425.178	619.62
425.401	616.62
425.623	656.62
425.846	578.62
426.068	508.62
426.291	500.62
426.513	515.62
426.735	517.62
426.958	539.62
427.18	627.62
427.402	787.62
427.625	854.62
427.847	736.62
428.069	632.62
428.292	554.62
428.514	499.62
428.736	480.62
428.958	474.62
429.181	467.62
429.403	460.62
429.625	459.62
429.847	525.62
430.069	551.62
430.292	588.62
430.514	503.62
430.736	468.62
430.958	447.62
431.18	432.62
431.402	441.62
431.624	419.62
431.846	439.62
432.068	428.62
432.29	428.62
432.512	445.62
432.734	464.62
432.956	453.62
433.178	459.62
433.4	476.62
433.622	435.62
433.844	433.62
434.066	432.62
434.287	455.62
434.509	424.62
434.731	451.62
434.953	447.62
435.175	479.62
435.397	472.62
435.618	515.62
435.84	552.62
436.062	656.62
436.284	677.62
436.505	587.62
436.727	522.62
436.949	508.62
437.17	482.62
437.392	482.62
437.614	469.62
437.835	545.62
438.057	646.62
438.278	737.62
438.5	705.62
438.721	785.62
438.943	757.62
439.165	593.62
439.386	536.62
439.608	545.62
439.829	519.62
440.05	546.62
440.272	605.62
440.493	570.62
440.715	511.62
440.936	479.62
441.158	477.62
441.379	480.62
441.6	494.62
441.822	508.62
442.043	533.62
442.264	613.62
442.486	670.62
442.707	561.62
442.928	533.62
443.149	544.62
443.371	542.62
443.592	598.62
443.813	683.62
444.034	725.62
444.255	603.62
444.476	532.62
444.698	496.62
444.919	485.62
445.14	588.62
445.361	547.62
445.582	569.62
445.803	616.62
446.024	721.62
446.245	750.62
446.466	650.62
446.687	575.62
446.908	517.62
447.129	486.62
447.35	479.62
447.571	474.62
447.792	478.62
448.013	458.62
448.234	502.62
448.455	552.62
448.675	628.62
448.896	753.62
449.117	662.62
449.338	618.62
449.559	708.62
449.779	799.62
450	650.62
450.221	551.62
450.442	487.62
450.662	481.62
450.883	477.62
451.104	504.62
451.324	476.62
451.545	455.62
451.766	432.62
451.986	440.62
452.207	401.62
452.428	405.62
452.648	413.62
452.869	412.62
453.089	428.62
453.31	458.62
453.53	432.62
453.751	428.62
453.971	437.62
454.192	441.62
454.412	460.62
454.633	424.62
454.853	400.62
455.073	431.62
455.294	458.62
455.514	508.62
455.734	531.62
455.955	460.62
456.175	405.62
456.395	397.62
456.616	381.62
456.836	387.62
457.056	388.62
457.276	392.62
457.497	378.62
457.717	392.62
457.937	397.62
458.157	409.62
458.377	405.62
458.598	436.62
458.818	485.62
459.038	593.62
459.258	575.62
459.478	505.62
459.698	448.62
459.918	418.62
460.138	448.62
460.358	436.62
460.578	457.62
460.798	443.62
461.018	437.62
461.238	443.62
461.458	437.62
461.678	436.62
461.898	441.62
462.118	449.62
462.338	433.62
462.558	450.62
462.777	436.62
462.997	441.62
463.217	468.62
463.437	471.62
463.657	468.62
463.876	448.62
464.096	456.62
464.316	440.62
464.536	469.62
464.755	466.62
464.975	483.62
465.195	492.62
465.414	610.62
465.634	522.62
465.854	466.62
466.073	420.62
466.293	417.62
466.512	427.62
466.732	419.62
466.951	394.62
467.171	404.62
467.391	423.62
467.61	450.62
467.829	433.62
468.049	417.62
468.268	429.62
468.488	416.62
468.707	420.62
468.927	425.62
469.146	405.62
469.365	412.62
469.585	418.62
469.804	415.62
470.023	423.62
470.243	433.62
470.462	455.62
470.681	465.62
470.901	437.62
471.12	451.62
471.339	414.62
471.558	447.62
471.777	435.62
471.997	413.62
472.216	417.62
472.435	428.62
472.654	409.62
472.873	403.62
473.092	413.62
473.311	424.62
473.53	425.62
473.749	424.62
473.968	451.62
474.187	589.62
474.406	626.62
474.625	497.62
474.844	438.62
475.063	445.62
475.282	422.62
475.501	437.62
475.72	433.62
475.939	432.62
476.158	434.62
476.377	441.62
476.596	432.62
476.814	439.62
477.033	452.62
477.252	472.62
477.471	466.62
477.69	439.62
477.908	488.62
478.127	457.62
478.346	454.62
478.564	461.62
478.783	458.62
479.002	455.62
479.22	486.62
479.439	461.62
479.658	502.62
479.876	502.62
480.095	504.62
480.313	556.62
480.532	528.62
480.751	514.62
480.969	513.62
481.188	528.62
481.406	526.62
481.624	523.62
481.843	494.62
482.061	508.62
482.28	506.62
482.498	516.62
482.717	490.62
482.935	496.62
483.153	497.62
483.372	498.62
483.59	501.62
483.808	483.62
484.027	508.62
484.245	499.62
484.463	505.62
484.681	540.62
484.9	519.62
485.118	508.62
485.336	509.62
485.554	507.62
485.772	511.62
485.99	514.62
486.209	528.62
486.427	518.62
486.645	524.62
486.863	555.62
487.081	546.62
487.299	548.62
487.517	545.62
487.735	509.62
487.953	538.62
488.171	536.62
488.389	520.62
488.607	552.62
488.825	547.62
489.043	550.62
489.261	537.62
489.479	543.62
489.696	568.62
489.914	555.62
490.132	549.62
490.35	575.62
490.568	559.62
490.786	565.62
491.003	575.62
491.221	574.62
491.439	597.62
491.657	597.62
491.874	586.62
492.092	617.62
492.31	631.62
492.527	602.62
492.745	611.62
492.963	632.62
493.18	624.62
493.398	613.62
493.615	649.62
493.833	629.62
494.05	640.62
494.268	641.62
494.485	624.62
494.703	661.62
494.92	637.62
495.138	624.62
495.355	634.62
495.573	628.62
495.79	659.62
496.008	665.62
496.225	661.62
496.442	633.62
496.66	636.62
496.877	625.62
497.094	661.62
497.312	662.62
497.529	654.62
497.746	672.62
497.963	645.62
498.181	681.62
498.398	698.62
498.615	702.62
498.832	696.62
499.049	733.62
499.267	711.62
499.484	753.62
499.701	773.62
499.918	777.62
500.135	794.62
500.352	841.62
500.569	843.62
500.786	806.62
501.003	809.62
501.22	822.62
501.437	802.62
501.654	794.62
501.871	767.62
