Data from 1989.PennyLincolnUp.Lamp.En5.5.200Scan.071819.P2_HRD10591_17-24-24-974.txt Node
Date: Thu Jul 18 17:24:24 EDT 2019
User: cochatt
Spectrometer: HR+D1059
Trigger mode: 1
Integration Time (sec): 1.000000E-1
Scans to average: 1
Electric dark correction enabled: true
Nonlinearity correction enabled: false
Boxcar width: 0
XAxis mode: Wavelengths
Number of Pixels in Spectrum: 2048
>>>>>Begin Spectral Data<<<<<
223.165	-17.38
223.4	-17.38
223.635	-17.38
223.869	-15.38
224.104	-14.38
224.338	-15.38
224.573	-13.38
224.808	-22.38
225.042	-2.38
225.277	2.62
225.511	1.62
225.746	18.62
225.98	0.62
226.215	1.62
226.449	1.62
226.683	27.62
226.918	33.62
227.152	12.62
227.387	25.62
227.621	40.62
227.856	38.62
228.09	47.62
228.324	39.62
228.559	41.62
228.793	71.62
229.027	100.62
229.262	112.62
229.496	112.62
229.73	111.62
229.964	158.62
230.199	130.62
230.433	97.62
230.667	122.62
230.901	122.62
231.136	113.62
231.37	115.62
231.604	111.62
231.838	102.62
232.072	120.62
232.306	121.62
232.541	106.62
232.775	98.62
233.009	103.62
233.243	106.62
233.477	113.62
233.711	122.62
233.945	100.62
234.179	103.62
234.413	105.62
234.647	112.62
234.881	114.62
235.115	119.62
235.349	120.62
235.583	110.62
235.817	134.62
236.051	122.62
236.285	127.62
236.519	116.62
236.753	132.62
236.987	147.62
237.221	185.62
237.455	236.62
237.689	181.62
237.922	140.62
238.156	136.62
238.39	133.62
238.624	114.62
238.858	131.62
239.091	134.62
239.325	105.62
239.559	132.62
239.793	126.62
240.027	132.62
240.26	143.62
240.494	153.62
240.728	158.62
240.961	137.62
241.195	152.62
241.429	142.62
241.662	130.62
241.896	131.62
242.13	133.62
242.363	132.62
242.597	122.62
242.83	124.62
243.064	124.62
243.298	150.62
243.531	134.62
243.765	136.62
243.998	154.62
244.232	154.62
244.465	136.62
244.699	134.62
244.932	147.62
245.166	140.62
245.399	140.62
245.633	156.62
245.866	155.62
246.099	161.62
246.333	159.62
246.566	166.62
246.8	165.62
247.033	149.62
247.266	162.62
247.5	170.62
247.733	176.62
247.966	188.62
248.2	187.62
248.433	168.62
248.666	182.62
248.899	185.62
249.133	207.62
249.366	200.62
249.599	206.62
249.832	192.62
250.066	195.62
250.299	189.62
250.532	191.62
250.765	206.62
250.998	231.62
251.231	242.62
251.465	223.62
251.698	212.62
251.931	213.62
252.164	211.62
252.397	208.62
252.63	198.62
252.863	221.62
253.096	224.62
253.329	258.62
253.562	230.62
253.795	239.62
254.028	223.62
254.261	232.62
254.494	216.62
254.727	252.62
254.96	311.62
255.193	302.62
255.426	264.62
255.659	251.62
255.892	247.62
256.124	220.62
256.357	246.62
256.59	230.62
256.823	223.62
257.056	242.62
257.289	230.62
257.521	223.62
257.754	221.62
257.987	219.62
258.22	233.62
258.452	239.62
258.685	208.62
258.918	210.62
259.151	211.62
259.383	234.62
259.616	249.62
259.849	244.62
260.081	265.62
260.314	264.62
260.547	284.62
260.779	255.62
261.012	256.62
261.244	239.62
261.477	229.62
261.71	232.62
261.942	235.62
262.175	254.62
262.407	250.62
262.64	237.62
262.872	235.62
263.105	229.62
263.337	217.62
263.57	201.62
263.802	216.62
264.035	206.62
264.267	210.62
264.499	240.62
264.732	218.62
264.964	218.62
265.197	205.62
265.429	216.62
265.661	219.62
265.894	208.62
266.126	226.62
266.358	213.62
266.591	242.62
266.823	238.62
267.055	238.62
267.287	224.62
267.52	223.62
267.752	234.62
267.984	246.62
268.216	246.62
268.448	248.62
268.681	244.62
268.913	265.62
269.145	277.62
269.377	288.62
269.609	295.62
269.841	278.62
270.073	303.62
270.306	304.62
270.538	337.62
270.77	313.62
271.002	320.62
271.234	302.62
271.466	320.62
271.698	331.62
271.93	328.62
272.162	348.62
272.394	353.62
272.626	318.62
272.858	309.62
273.09	298.62
273.322	301.62
273.553	288.62
273.785	267.62
274.017	270.62
274.249	295.62
274.481	284.62
274.713	281.62
274.945	291.62
275.176	266.62
275.408	286.62
275.64	278.62
275.872	273.62
276.104	274.62
276.335	294.62
276.567	299.62
276.799	294.62
277.031	319.62
277.262	342.62
277.494	332.62
277.726	325.62
277.957	297.62
278.189	294.62
278.421	300.62
278.652	272.62
278.884	264.62
279.115	276.62
279.347	265.62
279.579	279.62
279.81	264.62
280.042	285.62
280.273	272.62
280.505	269.62
280.736	286.62
280.968	263.62
281.199	283.62
281.431	267.62
281.662	256.62
281.894	274.62
282.125	289.62
282.356	303.62
282.588	331.62
282.819	314.62
283.051	295.62
283.282	260.62
283.513	291.62
283.745	262.62
283.976	289.62
284.207	283.62
284.439	286.62
284.67	302.62
284.901	272.62
285.132	276.62
285.364	277.62
285.595	302.62
285.826	279.62
286.057	300.62
286.288	288.62
286.52	274.62
286.751	299.62
286.982	286.62
287.213	282.62
287.444	284.62
287.675	305.62
287.906	306.62
288.138	316.62
288.369	297.62
288.6	323.62
288.831	307.62
289.062	300.62
289.293	297.62
289.524	291.62
289.755	299.62
289.986	294.62
290.217	306.62
290.448	293.62
290.679	296.62
290.91	307.62
291.141	289.62
291.371	306.62
291.602	303.62
291.833	281.62
292.064	290.62
292.295	286.62
292.526	277.62
292.757	307.62
292.987	300.62
293.218	288.62
293.449	295.62
293.68	293.62
293.91	304.62
294.141	302.62
294.372	291.62
294.603	294.62
294.833	291.62
295.064	295.62
295.295	310.62
295.525	310.62
295.756	299.62
295.987	306.62
296.217	325.62
296.448	340.62
296.679	315.62
296.909	304.62
297.14	315.62
297.37	312.62
297.601	302.62
297.831	309.62
298.062	304.62
298.292	298.62
298.523	299.62
298.753	291.62
298.984	303.62
299.214	308.62
299.445	318.62
299.675	318.62
299.905	327.62
300.136	319.62
300.366	318.62
300.597	321.62
300.827	310.62
301.057	344.62
301.288	352.62
301.518	332.62
301.748	313.62
301.979	329.62
302.209	320.62
302.439	323.62
302.669	334.62
302.9	332.62
303.13	341.62
303.36	326.62
303.59	333.62
303.82	343.62
304.051	346.62
304.281	336.62
304.511	343.62
304.741	335.62
304.971	325.62
305.201	327.62
305.431	319.62
305.661	335.62
305.891	321.62
306.121	358.62
306.352	344.62
306.582	337.62
306.812	340.62
307.042	336.62
307.272	334.62
307.502	331.62
307.731	329.62
307.961	345.62
308.191	328.62
308.421	344.62
308.651	361.62
308.881	338.62
309.111	335.62
309.341	346.62
309.571	362.62
309.8	359.62
310.03	395.62
310.26	394.62
310.49	395.62
310.72	392.62
310.949	411.62
311.179	438.62
311.409	390.62
311.639	396.62
311.868	386.62
312.098	393.62
312.328	396.62
312.557	432.62
312.787	424.62
313.017	434.62
313.246	402.62
313.476	389.62
313.706	390.62
313.935	404.62
314.165	424.62
314.394	417.62
314.624	400.62
314.853	388.62
315.083	391.62
315.312	394.62
315.542	380.62
315.771	396.62
316.001	383.62
316.23	383.62
316.46	379.62
316.689	386.62
316.919	400.62
317.148	396.62
317.377	392.62
317.607	385.62
317.836	410.62
318.065	367.62
318.295	412.62
318.524	387.62
318.753	386.62
318.983	399.62
319.212	394.62
319.441	407.62
319.67	409.62
319.9	394.62
320.129	393.62
320.358	404.62
320.587	388.62
320.816	407.62
321.046	418.62
321.275	407.62
321.504	396.62
321.733	423.62
321.962	422.62
322.191	458.62
322.42	438.62
322.649	464.62
322.878	468.62
323.108	482.62
323.337	491.62
323.566	552.62
323.795	575.62
324.024	623.62
324.253	754.62
324.482	1058.62
324.71	1630.62
324.939	2388.62
325.168	2116.62
325.397	1070.62
325.626	734.62
325.855	600.62
326.084	550.62
326.313	526.62
326.542	559.62
326.77	590.62
326.999	704.62
327.228	944.62
327.457	1439.62
327.686	1794.62
327.914	1174.62
328.143	764.62
328.372	642.62
328.6	596.62
328.829	595.62
329.058	607.62
329.287	610.62
329.515	578.62
329.744	511.62
329.972	513.62
330.201	524.62
330.43	554.62
330.658	584.62
330.887	628.62
331.115	634.62
331.344	546.62
331.572	494.62
331.801	491.62
332.03	501.62
332.258	485.62
332.486	464.62
332.715	447.62
332.943	454.62
333.172	457.62
333.4	463.62
333.629	463.62
333.857	451.62
334.085	477.62
334.314	461.62
334.542	468.62
334.771	470.62
334.999	455.62
335.227	460.62
335.455	479.62
335.684	451.62
335.912	442.62
336.14	443.62
336.369	427.62
336.597	439.62
336.825	449.62
337.053	464.62
337.281	448.62
337.51	422.62
337.738	433.62
337.966	462.62
338.194	447.62
338.422	452.62
338.65	435.62
338.878	434.62
339.106	437.62
339.334	423.62
339.562	430.62
339.79	422.62
340.018	425.62
340.246	435.62
340.474	411.62
340.702	451.62
340.93	437.62
341.158	432.62
341.386	431.62
341.614	423.62
341.842	434.62
342.07	414.62
342.298	440.62
342.526	412.62
342.754	407.62
342.981	433.62
343.209	413.62
343.437	419.62
343.665	408.62
343.893	414.62
344.12	423.62
344.348	417.62
344.576	441.62
344.804	448.62
345.031	440.62
345.259	445.62
345.487	438.62
345.714	426.62
345.942	430.62
346.17	412.62
346.397	414.62
346.625	414.62
346.853	442.62
347.08	423.62
347.308	416.62
347.535	434.62
347.763	433.62
347.99	423.62
348.218	434.62
348.445	435.62
348.673	428.62
348.9	444.62
349.128	415.62
349.355	391.62
349.583	426.62
349.81	411.62
350.037	400.62
350.265	420.62
350.492	391.62
350.72	397.62
350.947	406.62
351.174	411.62
351.402	424.62
351.629	420.62
351.856	415.62
352.083	433.62
352.311	439.62
352.538	455.62
352.765	447.62
352.992	421.62
353.22	415.62
353.447	414.62
353.674	409.62
353.901	395.62
354.128	423.62
354.355	386.62
354.583	387.62
354.81	377.62
355.037	390.62
355.264	380.62
355.491	373.62
355.718	375.62
355.945	366.62
356.172	370.62
356.399	367.62
356.626	387.62
356.853	377.62
357.08	395.62
357.307	368.62
357.534	372.62
357.761	381.62
357.988	373.62
358.215	363.62
358.441	378.62
358.668	390.62
358.895	364.62
359.122	384.62
359.349	402.62
359.576	420.62
359.802	439.62
360.029	463.62
360.256	447.62
360.483	434.62
360.709	411.62
360.936	407.62
361.163	410.62
361.39	430.62
361.616	425.62
361.843	409.62
362.07	401.62
362.296	421.62
362.523	408.62
362.749	422.62
362.976	399.62
363.203	404.62
363.429	393.62
363.656	414.62
363.882	400.62
364.109	378.62
364.335	390.62
364.562	380.62
364.788	380.62
365.015	406.62
365.241	374.62
365.468	377.62
365.694	386.62
365.92	384.62
366.147	380.62
366.373	361.62
366.599	381.62
366.826	384.62
367.052	374.62
367.278	379.62
367.505	377.62
367.731	373.62
367.957	371.62
368.184	402.62
368.41	406.62
368.636	394.62
368.862	393.62
369.089	394.62
369.315	382.62
369.541	390.62
369.767	387.62
369.993	384.62
370.219	376.62
370.445	397.62
370.672	377.62
370.898	373.62
371.124	367.62
371.35	372.62
371.576	377.62
371.802	387.62
372.028	375.62
372.254	396.62
372.48	360.62
372.706	390.62
372.932	362.62
373.158	379.62
373.384	395.62
373.61	399.62
373.835	379.62
374.061	383.62
374.287	390.62
374.513	394.62
374.739	375.62
374.965	376.62
375.191	374.62
375.416	395.62
375.642	358.62
375.868	376.62
376.094	384.62
376.319	358.62
376.545	355.62
376.771	367.62
376.997	386.62
377.222	375.62
377.448	370.62
377.674	373.62
377.899	366.62
378.125	361.62
378.35	378.62
378.576	368.62
378.802	384.62
379.027	373.62
379.253	412.62
379.478	393.62
379.704	394.62
379.929	383.62
380.155	373.62
380.38	363.62
380.606	371.62
380.831	381.62
381.057	378.62
381.282	361.62
381.507	360.62
381.733	379.62
381.958	367.62
382.184	390.62
382.409	374.62
382.634	377.62
382.86	385.62
383.085	371.62
383.31	363.62
383.535	378.62
383.761	381.62
383.986	375.62
384.211	374.62
384.436	372.62
384.662	384.62
384.887	382.62
385.112	386.62
385.337	388.62
385.562	382.62
385.787	390.62
386.013	418.62
386.238	409.62
386.463	402.62
386.688	414.62
386.913	410.62
387.138	409.62
387.363	386.62
387.588	404.62
387.813	417.62
388.038	385.62
388.263	388.62
388.488	385.62
388.713	408.62
388.938	410.62
389.163	406.62
389.387	414.62
389.612	406.62
389.837	410.62
390.062	395.62
390.287	401.62
390.512	397.62
390.736	376.62
390.961	395.62
391.186	392.62
391.411	406.62
391.636	407.62
391.86	404.62
392.085	391.62
392.31	409.62
392.534	391.62
392.759	391.62
392.984	412.62
393.208	395.62
393.433	402.62
393.658	401.62
393.882	394.62
394.107	406.62
394.331	401.62
394.556	390.62
394.78	388.62
395.005	395.62
395.229	406.62
395.454	402.62
395.678	399.62
395.903	424.62
396.127	446.62
396.352	442.62
396.576	428.62
396.801	434.62
397.025	420.62
397.249	417.62
397.474	412.62
397.698	388.62
397.922	427.62
398.147	467.62
398.371	462.62
398.595	441.62
398.82	438.62
399.044	451.62
399.268	468.62
399.492	456.62
399.717	500.62
399.941	499.62
400.165	531.62
400.389	560.62
400.613	523.62
400.837	466.62
401.062	466.62
401.286	462.62
401.51	453.62
401.734	458.62
401.958	449.62
402.182	443.62
402.406	472.62
402.63	481.62
402.854	469.62
403.078	464.62
403.302	452.62
403.526	475.62
403.75	477.62
403.974	468.62
404.198	455.62
404.422	468.62
404.645	497.62
404.869	462.62
405.093	469.62
405.317	509.62
405.541	527.62
405.765	517.62
405.988	479.62
406.212	499.62
406.436	528.62
406.66	520.62
406.883	542.62
407.107	531.62
407.331	550.62
407.555	616.62
407.778	624.62
408.002	592.62
408.226	529.62
408.449	515.62
408.673	498.62
408.896	536.62
409.12	565.62
409.344	559.62
409.567	486.62
409.791	470.62
410.014	454.62
410.238	470.62
410.461	458.62
410.685	442.62
410.908	479.62
411.132	529.62
411.355	548.62
411.578	539.62
411.802	472.62
412.025	442.62
412.249	450.62
412.472	448.62
412.695	474.62
412.919	477.62
413.142	451.62
413.365	454.62
413.589	433.62
413.812	421.62
414.035	442.62
414.258	455.62
414.482	425.62
414.705	453.62
414.928	431.62
415.151	419.62
415.374	424.62
415.597	428.62
415.821	431.62
416.044	445.62
416.267	440.62
416.49	420.62
416.713	420.62
416.936	428.62
417.159	416.62
417.382	443.62
417.605	423.62
417.828	457.62
418.051	464.62
418.274	447.62
418.497	426.62
418.72	420.62
418.943	437.62
419.166	467.62
419.389	454.62
419.611	455.62
419.834	447.62
420.057	440.62
420.28	443.62
420.503	451.62
420.726	445.62
420.948	484.62
421.171	492.62
421.394	523.62
421.617	483.62
421.839	464.62
422.062	472.62
422.285	488.62
422.507	547.62
422.73	595.62
422.953	586.62
423.175	502.62
423.398	490.62
423.621	499.62
423.843	516.62
424.066	509.62
424.288	499.62
424.511	530.62
424.733	577.62
424.956	638.62
425.178	626.62
425.401	587.62
425.623	638.62
425.846	584.62
426.068	525.62
426.291	511.62
426.513	523.62
426.735	527.62
426.958	546.62
427.18	625.62
427.402	756.62
427.625	851.62
427.847	726.62
428.069	599.62
428.292	534.62
428.514	520.62
428.736	485.62
428.958	480.62
429.181	454.62
429.403	463.62
429.625	489.62
429.847	511.62
430.069	585.62
430.292	573.62
430.514	487.62
430.736	479.62
430.958	474.62
431.18	455.62
431.402	441.62
431.624	417.62
431.846	416.62
432.068	432.62
432.29	418.62
432.512	436.62
432.734	436.62
432.956	439.62
433.178	449.62
433.4	456.62
433.622	433.62
433.844	412.62
434.066	406.62
434.287	414.62
434.509	441.62
434.731	434.62
434.953	444.62
435.175	476.62
435.397	511.62
435.618	504.62
435.84	544.62
436.062	642.62
436.284	696.62
436.505	606.62
436.727	520.62
436.949	470.62
437.17	466.62
437.392	466.62
437.614	499.62
437.835	533.62
438.057	621.62
438.278	695.62
438.5	722.62
438.721	756.62
438.943	764.62
439.165	596.62
439.386	525.62
439.608	517.62
439.829	519.62
440.05	552.62
440.272	583.62
440.493	560.62
440.715	507.62
440.936	504.62
441.158	488.62
441.379	470.62
441.6	491.62
441.822	519.62
442.043	547.62
442.264	623.62
442.486	668.62
442.707	592.62
442.928	526.62
443.149	513.62
443.371	548.62
443.592	602.62
443.813	680.62
444.034	722.62
444.255	610.62
444.476	539.62
444.698	508.62
444.919	517.62
445.14	586.62
445.361	578.62
445.582	550.62
445.803	588.62
446.024	717.62
446.245	706.62
446.466	653.62
446.687	558.62
446.908	508.62
447.129	501.62
447.35	470.62
447.571	463.62
447.792	469.62
448.013	470.62
448.234	507.62
448.455	559.62
448.675	651.62
448.896	759.62
449.117	646.62
449.338	607.62
449.559	699.62
449.779	813.62
450	617.62
450.221	524.62
450.442	489.62
450.662	465.62
450.883	456.62
451.104	497.62
451.324	484.62
451.545	458.62
451.766	430.62
451.986	420.62
452.207	439.62
452.428	444.62
452.648	410.62
452.869	421.62
453.089	436.62
453.31	460.62
453.53	446.62
453.751	438.62
453.971	418.62
454.192	425.62
454.412	429.62
454.633	412.62
454.853	422.62
455.073	399.62
455.294	442.62
455.514	511.62
455.734	493.62
455.955	411.62
456.175	390.62
456.395	394.62
456.616	388.62
456.836	380.62
457.056	382.62
457.276	375.62
457.497	383.62
457.717	386.62
457.937	385.62
458.157	407.62
458.377	401.62
458.598	409.62
458.818	498.62
459.038	572.62
459.258	560.62
459.478	514.62
459.698	442.62
459.918	450.62
460.138	434.62
460.358	419.62
460.578	425.62
460.798	452.62
461.018	428.62
461.238	427.62
461.458	432.62
461.678	441.62
461.898	432.62
462.118	416.62
462.338	442.62
462.558	444.62
462.777	452.62
462.997	456.62
463.217	477.62
463.437	468.62
463.657	456.62
463.876	454.62
464.096	456.62
464.316	439.62
464.536	464.62
464.755	447.62
464.975	468.62
465.195	524.62
465.414	575.62
465.634	512.62
465.854	491.62
466.073	451.62
466.293	438.62
466.512	401.62
466.732	412.62
466.951	385.62
467.171	400.62
467.391	393.62
467.61	423.62
467.829	462.62
468.049	430.62
468.268	430.62
468.488	396.62
468.707	413.62
468.927	400.62
469.146	394.62
469.365	409.62
469.585	428.62
469.804	427.62
470.023	457.62
470.243	434.62
470.462	438.62
470.681	448.62
470.901	442.62
471.12	414.62
471.339	418.62
471.558	429.62
471.777	436.62
471.997	418.62
472.216	417.62
472.435	433.62
472.654	430.62
472.873	410.62
473.092	393.62
473.311	407.62
473.53	406.62
473.749	434.62
473.968	482.62
474.187	577.62
474.406	622.62
474.625	484.62
474.844	446.62
475.063	443.62
475.282	430.62
475.501	420.62
475.72	449.62
475.939	452.62
476.158	439.62
476.377	450.62
476.596	431.62
476.814	472.62
477.033	462.62
477.252	439.62
477.471	442.62
477.69	468.62
477.908	465.62
478.127	459.62
478.346	446.62
478.564	446.62
478.783	467.62
479.002	464.62
479.22	473.62
479.439	482.62
479.658	494.62
479.876	494.62
480.095	514.62
480.313	547.62
480.532	530.62
480.751	504.62
480.969	507.62
481.188	520.62
481.406	535.62
481.624	534.62
481.843	485.62
482.061	501.62
482.28	499.62
482.498	516.62
482.717	498.62
482.935	500.62
483.153	474.62
483.372	469.62
483.59	483.62
483.808	490.62
484.027	475.62
484.245	497.62
484.463	491.62
484.681	526.62
484.9	490.62
485.118	492.62
485.336	504.62
485.554	528.62
485.772	511.62
485.99	494.62
486.209	522.62
486.427	519.62
486.645	519.62
486.863	544.62
487.081	537.62
487.299	553.62
487.517	552.62
487.735	525.62
487.953	545.62
488.171	519.62
488.389	507.62
488.607	516.62
488.825	536.62
489.043	525.62
489.261	562.62
489.479	537.62
489.696	534.62
489.914	538.62
490.132	547.62
490.35	576.62
490.568	556.62
490.786	565.62
491.003	577.62
491.221	583.62
491.439	570.62
491.657	610.62
491.874	607.62
492.092	593.62
492.31	604.62
492.527	621.62
492.745	612.62
492.963	617.62
493.18	635.62
493.398	626.62
493.615	611.62
493.833	602.62
494.05	614.62
494.268	638.62
494.485	616.62
494.703	626.62
494.92	611.62
495.138	646.62
495.355	632.62
495.573	620.62
495.79	618.62
496.008	642.62
496.225	640.62
496.442	629.62
496.66	613.62
496.877	631.62
497.094	664.62
497.312	627.62
497.529	651.62
497.746	670.62
497.963	642.62
498.181	682.62
498.398	687.62
498.615	704.62
498.832	695.62
499.049	688.62
499.267	726.62
499.484	724.62
499.701	754.62
499.918	771.62
500.135	803.62
500.352	837.62
500.569	831.62
500.786	840.62
501.003	829.62
501.22	817.62
501.437	782.62
501.654	782.62
501.871	775.62
