Data from 1989.PennyLincolnUp.Lamp.En5.5.200Scan.071819.P2_HRD10591_17-26-13-975.txt Node
Date: Thu Jul 18 17:26:13 EDT 2019
User: cochatt
Spectrometer: HR+D1059
Trigger mode: 1
Integration Time (sec): 1.000000E-1
Scans to average: 1
Electric dark correction enabled: true
Nonlinearity correction enabled: false
Boxcar width: 0
XAxis mode: Wavelengths
Number of Pixels in Spectrum: 2048
>>>>>Begin Spectral Data<<<<<
223.165	-19
223.4	-19
223.635	-19
223.869	-29
224.104	-17
224.338	-8
224.573	-16
224.808	-17
225.042	-12
225.277	-2
225.511	4
225.746	12
225.98	7
226.215	14
226.449	20
226.683	20
226.918	23
227.152	20
227.387	28
227.621	41
227.856	55
228.09	47
228.324	44
228.559	59
228.793	62
229.027	100
229.262	135
229.496	124
229.73	154
229.964	173
230.199	143
230.433	118
230.667	106
230.901	119
231.136	118
231.37	96
231.604	115
231.838	122
232.072	111
232.306	114
232.541	116
232.775	129
233.009	126
233.243	119
233.477	114
233.711	110
233.945	132
234.179	120
234.413	125
234.647	105
234.881	120
235.115	112
235.349	138
235.583	135
235.817	134
236.051	141
236.285	139
236.519	127
236.753	135
236.987	137
237.221	182
237.455	252
237.689	208
237.922	153
238.156	140
238.39	126
238.624	138
238.858	135
239.091	128
239.325	137
239.559	148
239.793	148
240.027	150
240.26	158
240.494	153
240.728	172
240.961	147
241.195	163
241.429	153
241.662	159
241.896	141
242.13	142
242.363	158
242.597	154
242.83	159
243.064	141
243.298	148
243.531	144
243.765	152
243.998	157
244.232	151
244.465	133
244.699	166
244.932	159
245.166	148
245.399	144
245.633	168
245.866	183
246.099	170
246.333	162
246.566	163
246.8	162
247.033	182
247.266	174
247.5	173
247.733	195
247.966	180
248.2	194
248.433	191
248.666	186
248.899	196
249.133	224
249.366	238
249.599	229
249.832	200
250.066	213
250.299	207
250.532	226
250.765	252
250.998	254
251.231	252
251.465	234
251.698	232
251.931	227
252.164	215
252.397	229
252.63	229
252.863	229
253.096	243
253.329	243
253.562	239
253.795	238
254.028	247
254.261	251
254.494	254
254.727	282
254.96	322
255.193	303
255.426	289
255.659	281
255.892	311
256.124	291
256.357	302
256.59	291
256.823	269
257.056	264
257.289	255
257.521	246
257.754	242
257.987	228
258.22	256
258.452	233
258.685	250
258.918	246
259.151	223
259.383	224
259.616	240
259.849	253
260.081	274
260.314	304
260.547	293
260.779	272
261.012	264
261.244	265
261.477	266
261.71	248
261.942	254
262.175	278
262.407	271
262.64	238
262.872	236
263.105	239
263.337	239
263.57	248
263.802	253
264.035	248
264.267	254
264.499	236
264.732	250
264.964	245
265.197	232
265.429	258
265.661	245
265.894	238
266.126	240
266.358	247
266.591	259
266.823	243
267.055	240
267.287	242
267.52	246
267.752	245
267.984	272
268.216	244
268.448	245
268.681	257
268.913	278
269.145	276
269.377	317
269.609	314
269.841	315
270.073	329
270.306	342
270.538	345
270.77	347
271.002	345
271.234	326
271.466	347
271.698	358
271.93	366
272.162	379
272.394	357
272.626	335
272.858	313
273.09	317
273.322	305
273.553	282
273.785	298
274.017	312
274.249	303
274.481	299
274.713	293
274.945	298
275.176	304
275.408	304
275.64	294
275.872	284
276.104	294
276.335	294
276.567	315
276.799	331
277.031	356
277.262	359
277.494	381
277.726	359
277.957	326
278.189	308
278.421	314
278.652	318
278.884	315
279.115	312
279.347	313
279.579	307
279.81	279
280.042	301
280.273	306
280.505	302
280.736	308
280.968	315
281.199	302
281.431	298
281.662	312
281.894	284
282.125	305
282.356	302
282.588	349
282.819	340
283.051	310
283.282	312
283.513	288
283.745	306
283.976	318
284.207	313
284.439	309
284.67	318
284.901	302
285.132	315
285.364	314
285.595	304
285.826	314
286.057	324
286.288	337
286.52	328
286.751	301
286.982	316
287.213	314
287.444	317
287.675	311
287.906	334
288.138	333
288.369	328
288.6	335
288.831	349
289.062	311
289.293	331
289.524	319
289.755	323
289.986	313
290.217	317
290.448	323
290.679	297
290.91	324
291.141	308
291.371	307
291.602	325
291.833	312
292.064	300
292.295	310
292.526	314
292.757	330
292.987	327
293.218	319
293.449	344
293.68	324
293.91	314
294.141	315
294.372	313
294.603	324
294.833	317
295.064	312
295.295	325
295.525	330
295.756	332
295.987	347
296.217	372
296.448	375
296.679	343
296.909	322
297.14	343
297.37	342
297.601	345
297.831	327
298.062	347
298.292	345
298.523	340
298.753	348
298.984	365
299.214	352
299.445	340
299.675	343
299.905	355
300.136	328
300.366	332
300.597	364
300.827	352
301.057	363
301.288	372
301.518	350
301.748	351
301.979	354
302.209	358
302.439	364
302.669	354
302.9	354
303.13	338
303.36	358
303.59	360
303.82	363
304.051	348
304.281	355
304.511	343
304.741	353
304.971	359
305.201	363
305.431	376
305.661	349
305.891	374
306.121	358
306.352	366
306.582	390
306.812	362
307.042	362
307.272	352
307.502	374
307.731	375
307.961	383
308.191	393
308.421	367
308.651	375
308.881	374
309.111	383
309.341	373
309.571	382
309.8	413
310.03	386
310.26	421
310.49	415
310.72	441
310.949	450
311.179	448
311.409	454
311.639	419
311.868	410
312.098	442
312.328	442
312.557	449
312.787	471
313.017	476
313.246	432
313.476	412
313.706	410
313.935	415
314.165	442
314.394	448
314.624	471
314.853	441
315.083	422
315.312	432
315.542	411
315.771	417
316.001	426
316.23	423
316.46	427
316.689	411
316.919	443
317.148	452
317.377	439
317.607	439
317.836	420
318.065	404
318.295	415
318.524	428
318.753	434
318.983	429
319.212	440
319.441	448
319.67	459
319.9	427
320.129	438
320.358	433
320.587	445
320.816	440
321.046	460
321.275	468
321.504	464
321.733	466
321.962	458
322.191	477
322.42	493
322.649	507
322.878	511
323.108	517
323.337	543
323.566	585
323.795	610
324.024	688
324.253	830
324.482	1213
324.71	1867
324.939	2700
325.168	2286
325.397	1199
325.626	774
325.855	646
326.084	604
326.313	585
326.542	609
326.77	644
326.999	764
327.228	1090
327.457	1628
327.686	2022
327.914	1368
328.143	893
328.372	770
328.6	716
328.829	669
329.058	690
329.287	688
329.515	666
329.744	609
329.972	632
330.201	678
330.43	710
330.658	742
330.887	757
331.115	701
331.344	626
331.572	576
331.801	578
332.03	566
332.258	536
332.486	523
332.715	500
332.943	540
333.172	498
333.4	514
333.629	538
333.857	551
334.085	575
334.314	642
334.542	694
334.771	721
334.999	623
335.227	562
335.455	538
335.684	542
335.912	492
336.14	469
336.369	487
336.597	503
336.825	495
337.053	491
337.281	494
337.51	470
337.738	480
337.966	493
338.194	485
338.422	490
338.65	475
338.878	468
339.106	448
339.334	466
339.562	457
339.79	451
340.018	448
340.246	459
340.474	466
340.702	481
340.93	458
341.158	457
341.386	459
341.614	461
341.842	474
342.07	438
342.298	463
342.526	439
342.754	459
342.981	447
343.209	436
343.437	462
343.665	465
343.893	464
344.12	477
344.348	464
344.576	458
344.804	488
345.031	471
345.259	490
345.487	478
345.714	465
345.942	446
346.17	450
346.397	441
346.625	461
346.853	448
347.08	455
347.308	464
347.535	447
347.763	445
347.99	478
348.218	476
348.445	459
348.673	467
348.9	481
349.128	458
349.355	441
349.583	431
349.81	440
350.037	454
350.265	434
350.492	428
350.72	436
350.947	432
351.174	450
351.402	474
351.629	435
351.856	444
352.083	465
352.311	460
352.538	459
352.765	470
352.992	461
353.22	459
353.447	443
353.674	447
353.901	446
354.128	434
354.355	412
354.583	424
354.81	424
355.037	414
355.264	412
355.491	436
355.718	373
355.945	408
356.172	418
356.399	399
356.626	426
356.853	416
357.08	404
357.307	410
357.534	412
357.761	408
357.988	393
358.215	398
358.441	403
358.668	403
358.895	414
359.122	432
359.349	422
359.576	418
359.802	471
360.029	511
360.256	524
360.483	491
360.709	436
360.936	437
361.163	448
361.39	448
361.616	438
361.843	443
362.07	437
362.296	457
362.523	439
362.749	442
362.976	396
363.203	428
363.429	422
363.656	429
363.882	410
364.109	434
364.335	444
364.562	442
364.788	407
365.015	412
365.241	418
365.468	434
365.694	414
365.92	413
366.147	424
366.373	415
366.599	398
366.826	415
367.052	423
367.278	415
367.505	437
367.731	443
367.957	443
368.184	401
368.41	413
368.636	432
368.862	430
369.089	408
369.315	418
369.541	422
369.767	410
369.993	410
370.219	405
370.445	417
370.672	415
370.898	398
371.124	431
371.35	399
371.576	423
371.802	394
372.028	408
372.254	398
372.48	396
372.706	394
372.932	415
373.158	418
373.384	412
373.61	423
373.835	406
374.061	409
374.287	410
374.513	403
374.739	404
374.965	426
375.191	409
375.416	415
375.642	400
375.868	409
376.094	411
376.319	412
376.545	410
376.771	409
376.997	394
377.222	405
377.448	399
377.674	421
377.899	406
378.125	412
378.35	394
378.576	398
378.802	388
379.027	388
379.253	413
379.478	400
379.704	415
379.929	414
380.155	401
380.38	419
380.606	404
380.831	394
381.057	397
381.282	398
381.507	400
381.733	410
381.958	406
382.184	407
382.409	405
382.634	414
382.86	404
383.085	397
383.31	392
383.535	399
383.761	401
383.986	412
384.211	422
384.436	419
384.662	422
384.887	421
385.112	426
385.337	414
385.562	428
385.787	415
386.013	444
386.238	423
386.463	446
386.688	444
386.913	423
387.138	431
387.363	421
387.588	436
387.813	422
388.038	424
388.263	419
388.488	434
388.713	408
388.938	412
389.163	415
389.387	434
389.612	422
389.837	411
390.062	424
390.287	418
390.512	435
390.736	415
390.961	435
391.186	428
391.411	425
391.636	434
391.86	429
392.085	432
392.31	443
392.534	420
392.759	430
392.984	405
393.208	411
393.433	426
393.658	416
393.882	424
394.107	429
394.331	429
394.556	427
394.78	422
395.005	436
395.229	439
395.454	448
395.678	442
395.903	445
396.127	454
396.352	474
396.576	445
396.801	430
397.025	438
397.249	429
397.474	452
397.698	446
397.922	485
398.147	479
398.371	488
398.595	488
398.82	486
399.044	467
399.268	489
399.492	492
399.717	536
399.941	574
400.165	568
400.389	600
400.613	558
400.837	485
401.062	495
401.286	485
401.51	478
401.734	466
401.958	488
402.182	487
402.406	492
402.63	472
402.854	491
403.078	492
403.302	474
403.526	503
403.75	493
403.974	502
404.198	494
404.422	522
404.645	530
404.869	534
405.093	568
405.317	614
405.541	642
405.765	592
405.988	573
406.212	552
406.436	583
406.66	566
406.883	548
407.107	560
407.331	591
407.555	670
407.778	663
408.002	604
408.226	545
408.449	571
408.673	544
408.896	585
409.12	626
409.344	608
409.567	508
409.791	520
410.014	477
410.238	522
410.461	510
410.685	493
410.908	518
411.132	559
411.355	599
411.578	558
411.802	534
412.025	512
412.249	537
412.472	542
412.695	604
412.919	592
413.142	543
413.365	519
413.589	503
413.812	479
414.035	474
414.258	476
414.482	468
414.705	472
414.928	462
415.151	461
415.374	483
415.597	464
415.821	469
416.044	470
416.267	480
416.49	461
416.713	461
416.936	450
417.159	454
417.382	483
417.605	460
417.828	487
418.051	526
418.274	491
418.497	486
418.72	470
418.943	457
419.166	498
419.389	514
419.611	510
419.834	522
420.057	497
420.28	510
420.503	534
420.726	518
420.948	550
421.171	563
421.394	574
421.617	522
421.839	488
422.062	503
422.285	522
422.507	591
422.73	642
422.953	615
423.175	552
423.398	523
423.621	510
423.843	544
424.066	549
424.288	543
424.511	547
424.733	594
424.956	694
425.178	662
425.401	633
425.623	674
425.846	596
426.068	537
426.291	537
426.513	546
426.735	543
426.958	600
427.18	681
427.402	834
427.625	916
427.847	813
428.069	710
428.292	621
428.514	566
428.736	526
428.958	520
429.181	498
429.403	473
429.625	492
429.847	536
430.069	620
430.292	634
430.514	539
430.736	488
430.958	485
431.18	467
431.402	468
431.624	469
431.846	442
432.068	463
432.29	466
432.512	470
432.734	463
432.956	468
433.178	477
433.4	474
433.622	470
433.844	472
434.066	488
434.287	454
434.509	459
434.731	477
434.953	484
435.175	475
435.397	532
435.618	541
435.84	585
436.062	653
436.284	734
436.505	619
436.727	559
436.949	500
437.17	489
437.392	490
437.614	551
437.835	548
438.057	662
438.278	734
438.5	728
438.721	807
438.943	801
439.165	619
439.386	540
439.608	551
439.829	564
440.05	581
440.272	634
440.493	611
440.715	564
440.936	527
441.158	495
441.379	528
441.6	518
441.822	555
442.043	583
442.264	679
442.486	732
442.707	603
442.928	536
443.149	570
443.371	574
443.592	620
443.813	728
444.034	794
444.255	621
444.476	575
444.698	551
444.919	522
445.14	662
445.361	608
445.582	582
445.803	645
446.024	757
446.245	770
446.466	684
446.687	605
446.908	544
447.129	497
447.35	495
447.571	494
447.792	496
448.013	501
448.234	518
448.455	576
448.675	677
448.896	788
449.117	711
449.338	662
449.559	771
449.779	859
450	677
450.221	550
450.442	528
450.662	504
450.883	499
451.104	517
451.324	505
451.545	478
451.766	458
451.986	439
452.207	468
452.428	452
452.648	459
452.869	467
453.089	445
453.31	480
453.53	454
453.751	434
453.971	452
454.192	475
454.412	463
454.633	450
454.853	446
455.073	428
455.294	484
455.514	555
455.734	542
455.955	470
456.175	426
456.395	426
456.616	418
456.836	408
457.056	404
457.276	413
457.497	409
457.717	425
457.937	440
458.157	451
458.377	430
458.598	455
458.818	539
459.038	634
459.258	633
459.478	548
459.698	462
459.918	463
460.138	445
460.358	475
460.578	464
460.798	464
461.018	451
461.238	447
461.458	457
461.678	462
461.898	467
462.118	478
462.338	455
462.558	471
462.777	455
462.997	491
463.217	476
463.437	508
463.657	493
463.876	504
464.096	490
464.316	482
464.536	491
464.755	498
464.975	498
465.195	556
465.414	630
465.634	531
465.854	490
466.073	494
466.293	475
466.512	444
466.732	450
466.951	444
467.171	425
467.391	428
467.61	460
467.829	460
468.049	461
468.268	459
468.488	446
468.707	444
468.927	462
469.146	434
469.365	430
469.585	423
469.804	456
470.023	463
470.243	468
470.462	460
470.681	489
470.901	491
471.12	465
471.339	467
471.558	467
471.777	473
471.997	456
472.216	465
472.435	542
472.654	522
472.873	461
473.092	470
473.311	483
473.53	446
473.749	475
473.968	495
474.187	629
474.406	646
474.625	562
474.844	489
475.063	452
475.282	454
475.501	443
475.72	470
475.939	471
476.158	483
476.377	459
476.596	474
476.814	461
477.033	473
477.252	486
477.471	494
477.69	480
477.908	488
478.127	480
478.346	478
478.564	499
478.783	493
479.002	518
479.22	502
479.439	553
479.658	540
479.876	553
480.095	548
480.313	589
480.532	599
480.751	571
480.969	578
481.188	717
481.406	799
481.624	643
481.843	588
482.061	585
482.28	577
482.498	544
482.717	548
482.935	547
483.153	537
483.372	538
483.59	555
483.808	554
484.027	555
484.245	516
484.463	550
484.681	545
484.9	535
485.118	543
485.336	550
485.554	564
485.772	582
485.99	566
486.209	563
486.427	577
486.645	566
486.863	588
487.081	599
487.299	583
487.517	559
487.735	580
487.953	566
488.171	571
488.389	582
488.607	591
488.825	579
489.043	585
489.261	589
489.479	577
489.696	605
489.914	600
490.132	610
490.35	597
490.568	605
490.786	621
491.003	636
491.221	624
491.439	652
491.657	651
491.874	671
492.092	688
492.31	686
492.527	702
492.745	709
492.963	684
493.18	712
493.398	692
493.615	701
493.833	697
494.05	719
494.268	707
494.485	718
494.703	690
494.92	680
495.138	702
495.355	700
495.573	704
495.79	709
496.008	694
496.225	699
496.442	692
496.66	684
496.877	679
497.094	700
497.312	706
497.529	692
497.746	719
497.963	729
498.181	719
498.398	740
498.615	756
498.832	745
499.049	754
499.267	766
499.484	790
499.701	786
499.918	816
500.135	819
500.352	859
500.569	895
500.786	906
501.003	894
501.22	866
501.437	841
501.654	849
501.871	852
502.088	825
502.305	785
502.522	772
502.739	768
502.956	740
503.172	734
503.389	716
503.606	718
503.823	722
504.04	718
504.256	690
504.473	694
504.69	681
504.907	694
505.123	668
505.34	670
505.557	671
505.773	670
505.99	651
506.207	658
506.423	646
506.64	670
506.856	670
507.073	649
507.289	625
507.506	645
507.722	639
507.939	671
508.155	659
508.372	618
508.588	617
508.805	612
509.021	620
509.238	635
509.454	674
509.67	635
509.887	638
510.103	644
510.319	661
510.536	770
510.752	1304
510.968	1041
511.184	660
511.401	626
511.617	630
511.833	630
512.049	629
512.265	608
512.481	612
512.698	616
512.914	608
513.13	615
513.346	598
513.562	572
513.778	603
513.994	622
514.21	621
514.426	642
514.642	668
514.858	730
515.074	796
515.29	938
515.506	1408
515.721	1152
515.937	755
516.153	664
516.369	659
516.585	623
516.801	618
517.016	614
517.232	603
517.448	629
517.664	619
517.879	620
518.095	610
518.311	587
518.527	598
518.742	607
518.958	591
519.173	598
519.389	598
519.605	611
519.82	601
520.036	626
520.251	652
520.467	669
520.682	652
520.898	663
521.113	688
521.329	749
521.544	857
521.76	1119
521.975	1862
522.19	1874
522.406	990
522.621	706
522.836	641
523.052	609
523.267	598
523.482	575
523.698	547
523.913	541
524.128	565
524.343	542
524.559	510
524.774	525
524.989	549
525.204	542
525.419	520
525.634	532
525.849	506
526.064	521
526.28	501
526.495	504
526.71	488
526.925	491
527.14	464
527.355	473
527.57	474
527.785	478
527.999	490
528.214	470
528.429	482
528.644	478
528.859	480
529.074	495
529.289	512
529.503	596
529.718	570
529.933	518
530.148	504
530.363	498
530.577	487
530.792	463
531.007	484
531.221	465
531.436	474
531.651	474
531.865	462
532.08	451
532.295	463
532.509	449
532.724	469
532.938	459
533.153	440
533.367	460
533.582	452
533.796	461
534.011	461
534.225	449
534.44	438
534.654	440
534.868	442
535.083	432
535.297	446
535.511	459
535.726	463
535.94	461
536.154	470
536.369	463
536.583	449
536.797	428
537.011	440
537.225	458
537.44	452
537.654	438
537.868	432
538.082	441
538.296	444
538.51	447
538.724	456
538.938	452
539.153	438
539.367	458
539.581	456
539.795	442
540.009	428
540.222	423
540.436	463
540.65	447
540.864	447
541.078	455
541.292	456
541.506	437
541.72	454
541.934	454
542.147	448
542.361	426
542.575	422
542.789	436
543.002	437
543.216	432
543.43	453
543.644	430
543.857	448
544.071	446
544.285	426
544.498	410
544.712	391
544.925	432
545.139	415
545.352	421
545.566	443
545.779	426
545.993	426
546.206	416
546.42	440
546.633	434
546.847	434
547.06	400
547.274	423
547.487	415
547.7	417
547.914	426
548.127	424
548.34	422
548.554	411
548.767	426
548.98	385
549.193	389
549.407	395
549.62	397
549.833	421
550.046	393
550.259	402
550.473	408
550.686	403
550.899	395
551.112	412
551.325	409
551.538	400
551.751	405
551.964	404
552.177	415
552.39	409
552.603	409
552.816	418
553.029	403
553.242	422
553.455	419
553.667	418
553.88	414
554.093	405
554.306	422
554.519	406
554.732	395
554.944	404
555.157	398
555.37	392
555.583	396
555.795	390
556.008	393
556.221	394
556.433	384
556.646	378
556.859	378
557.071	369
557.284	375
557.496	375
557.709	362
557.921	386
558.134	363
558.346	373
558.559	374
558.771	370
558.984	354
559.196	363
559.409	387
559.621	371
559.833	362
560.046	361
560.258	358
560.47	370
560.683	358
560.895	357
561.107	354
561.32	370
561.532	358
561.744	376
561.956	373
562.168	370
562.381	343
562.593	367
562.805	361
563.017	370
563.229	359
563.441	376
