Data from 1989.PennyLincolnUp.Lamp.En5.5.200Scan.071819.P2_HRD10591_17-24-47-973.txt Node
Date: Thu Jul 18 17:24:47 EDT 2019
User: cochatt
Spectrometer: HR+D1059
Trigger mode: 1
Integration Time (sec): 1.000000E-1
Scans to average: 1
Electric dark correction enabled: true
Nonlinearity correction enabled: false
Boxcar width: 0
XAxis mode: Wavelengths
Number of Pixels in Spectrum: 2048
>>>>>Begin Spectral Data<<<<<
223.165	-19.19
223.4	-19.19
223.635	-19.19
223.869	-3.19
224.104	-27.19
224.338	-19.19
224.573	-19.19
224.808	-3.19
225.042	-21.19
225.277	4.81
225.511	6.81
225.746	7.81
225.98	9.81
226.215	13.81
226.449	18.81
226.683	14.81
226.918	11.81
227.152	23.81
227.387	41.81
227.621	25.81
227.856	46.81
228.09	41.81
228.324	38.81
228.559	61.81
228.793	68.81
229.027	92.81
229.262	111.81
229.496	130.81
229.73	140.81
229.964	168.81
230.199	131.81
230.433	115.81
230.667	121.81
230.901	134.81
231.136	100.81
231.37	107.81
231.604	109.81
231.838	128.81
232.072	110.81
232.306	119.81
232.541	118.81
232.775	101.81
233.009	110.81
233.243	97.81
233.477	117.81
233.711	92.81
233.945	113.81
234.179	105.81
234.413	107.81
234.647	120.81
234.881	118.81
235.115	122.81
235.349	116.81
235.583	121.81
235.817	136.81
236.051	126.81
236.285	135.81
236.519	135.81
236.753	136.81
236.987	139.81
237.221	183.81
237.455	235.81
237.689	212.81
237.922	159.81
238.156	134.81
238.39	140.81
238.624	145.81
238.858	126.81
239.091	125.81
239.325	120.81
239.559	121.81
239.793	132.81
240.027	142.81
240.26	152.81
240.494	167.81
240.728	147.81
240.961	153.81
241.195	149.81
241.429	151.81
241.662	132.81
241.896	143.81
242.13	139.81
242.363	144.81
242.597	143.81
242.83	147.81
243.064	143.81
243.298	150.81
243.531	130.81
243.765	130.81
243.998	131.81
244.232	147.81
244.465	152.81
244.699	140.81
244.932	143.81
245.166	164.81
245.399	161.81
245.633	152.81
245.866	127.81
246.099	136.81
246.333	155.81
246.566	148.81
246.8	155.81
247.033	161.81
247.266	178.81
247.5	176.81
247.733	177.81
247.966	190.81
248.2	192.81
248.433	199.81
248.666	180.81
248.899	186.81
249.133	223.81
249.366	222.81
249.599	193.81
249.832	197.81
250.066	193.81
250.299	180.81
250.532	199.81
250.765	204.81
250.998	238.81
251.231	247.81
251.465	228.81
251.698	218.81
251.931	225.81
252.164	212.81
252.397	195.81
252.63	206.81
252.863	222.81
253.096	222.81
253.329	225.81
253.562	242.81
253.795	257.81
254.028	235.81
254.261	215.81
254.494	229.81
254.727	271.81
254.96	309.81
255.193	306.81
255.426	274.81
255.659	256.81
255.892	244.81
256.124	249.81
256.357	243.81
256.59	227.81
256.823	232.81
257.056	242.81
257.289	229.81
257.521	231.81
257.754	230.81
257.987	216.81
258.22	223.81
258.452	212.81
258.685	227.81
258.918	240.81
259.151	239.81
259.383	230.81
259.616	234.81
259.849	255.81
260.081	255.81
260.314	263.81
260.547	274.81
260.779	272.81
261.012	249.81
261.244	258.81
261.477	246.81
261.71	251.81
261.942	265.81
262.175	282.81
262.407	251.81
262.64	238.81
262.872	247.81
263.105	208.81
263.337	230.81
263.57	233.81
263.802	219.81
264.035	228.81
264.267	236.81
264.499	222.81
264.732	240.81
264.964	237.81
265.197	220.81
265.429	215.81
265.661	228.81
265.894	212.81
266.126	239.81
266.358	231.81
266.591	240.81
266.823	236.81
267.055	228.81
267.287	239.81
267.52	238.81
267.752	250.81
267.984	254.81
268.216	230.81
268.448	239.81
268.681	246.81
268.913	270.81
269.145	277.81
269.377	277.81
269.609	292.81
269.841	302.81
270.073	289.81
270.306	318.81
270.538	354.81
270.77	326.81
271.002	330.81
271.234	331.81
271.466	319.81
271.698	327.81
271.93	331.81
272.162	340.81
272.394	340.81
272.626	335.81
272.858	333.81
273.09	319.81
273.322	295.81
273.553	297.81
273.785	287.81
274.017	285.81
274.249	282.81
274.481	290.81
274.713	284.81
274.945	294.81
275.176	288.81
275.408	288.81
275.64	288.81
275.872	280.81
276.104	291.81
276.335	294.81
276.567	298.81
276.799	309.81
277.031	314.81
277.262	338.81
277.494	326.81
277.726	331.81
277.957	316.81
278.189	297.81
278.421	292.81
278.652	294.81
278.884	289.81
279.115	282.81
279.347	283.81
279.579	293.81
279.81	273.81
280.042	284.81
280.273	295.81
280.505	304.81
280.736	274.81
280.968	284.81
281.199	280.81
281.431	278.81
281.662	296.81
281.894	313.81
282.125	289.81
282.356	312.81
282.588	336.81
282.819	350.81
283.051	286.81
283.282	302.81
283.513	280.81
283.745	284.81
283.976	293.81
284.207	302.81
284.439	283.81
284.67	302.81
284.901	310.81
285.132	299.81
285.364	288.81
285.595	287.81
285.826	286.81
286.057	315.81
286.288	304.81
286.52	299.81
286.751	299.81
286.982	300.81
287.213	283.81
287.444	297.81
287.675	304.81
287.906	314.81
288.138	317.81
288.369	331.81
288.6	332.81
288.831	304.81
289.062	311.81
289.293	309.81
289.524	307.81
289.755	315.81
289.986	316.81
290.217	306.81
290.448	290.81
290.679	296.81
290.91	302.81
291.141	308.81
291.371	317.81
291.602	310.81
291.833	302.81
292.064	311.81
292.295	312.81
292.526	299.81
292.757	322.81
292.987	304.81
293.218	297.81
293.449	316.81
293.68	306.81
293.91	303.81
294.141	293.81
294.372	311.81
294.603	286.81
294.833	310.81
295.064	312.81
295.295	286.81
295.525	298.81
295.756	308.81
295.987	318.81
296.217	347.81
296.448	339.81
296.679	324.81
296.909	319.81
297.14	297.81
297.37	297.81
297.601	299.81
297.831	303.81
298.062	340.81
298.292	321.81
298.523	326.81
298.753	316.81
298.984	323.81
299.214	324.81
299.445	318.81
299.675	332.81
299.905	334.81
300.136	324.81
300.366	315.81
300.597	320.81
300.827	335.81
301.057	322.81
301.288	346.81
301.518	343.81
301.748	323.81
301.979	329.81
302.209	351.81
302.439	343.81
302.669	347.81
302.9	338.81
303.13	347.81
303.36	342.81
303.59	329.81
303.82	348.81
304.051	353.81
304.281	364.81
304.511	338.81
304.741	358.81
304.971	336.81
305.201	354.81
305.431	359.81
305.661	334.81
305.891	340.81
306.121	357.81
306.352	364.81
306.582	345.81
306.812	349.81
307.042	350.81
307.272	329.81
307.502	340.81
307.731	341.81
307.961	355.81
308.191	353.81
308.421	350.81
308.651	338.81
308.881	353.81
309.111	340.81
309.341	374.81
309.571	378.81
309.8	374.81
310.03	375.81
310.26	390.81
310.49	387.81
310.72	404.81
310.949	427.81
311.179	437.81
311.409	390.81
311.639	411.81
311.868	404.81
312.098	408.81
312.328	402.81
312.557	409.81
312.787	425.81
313.017	392.81
313.246	410.81
313.476	403.81
313.706	421.81
313.935	410.81
314.165	416.81
314.394	440.81
314.624	430.81
314.853	403.81
315.083	426.81
315.312	412.81
315.542	407.81
315.771	386.81
316.001	397.81
316.23	386.81
316.46	405.81
316.689	427.81
316.919	405.81
317.148	405.81
317.377	410.81
317.607	415.81
317.836	385.81
318.065	394.81
318.295	390.81
318.524	409.81
318.753	389.81
318.983	407.81
319.212	394.81
319.441	408.81
319.67	397.81
319.9	410.81
320.129	402.81
320.358	410.81
320.587	419.81
320.816	410.81
321.046	408.81
321.275	426.81
321.504	446.81
321.733	416.81
321.962	447.81
322.191	443.81
322.42	474.81
322.649	476.81
322.878	483.81
323.108	489.81
323.337	532.81
323.566	544.81
323.795	593.81
324.024	646.81
324.253	764.81
324.482	1113.81
324.71	1748.81
324.939	2484.81
325.168	2168.81
325.397	1118.81
325.626	728.81
325.855	640.81
326.084	558.81
326.313	517.81
326.542	569.81
326.77	639.81
326.999	705.81
327.228	985.81
327.457	1510.81
327.686	1865.81
327.914	1280.81
328.143	792.81
328.372	675.81
328.6	648.81
328.829	603.81
329.058	624.81
329.287	630.81
329.515	594.81
329.744	556.81
329.972	514.81
330.201	549.81
330.43	576.81
330.658	603.81
330.887	686.81
331.115	638.81
331.344	565.81
331.572	532.81
331.801	524.81
332.03	530.81
332.258	510.81
332.486	486.81
332.715	468.81
332.943	475.81
333.172	480.81
333.4	456.81
333.629	488.81
333.857	479.81
334.085	486.81
334.314	501.81
334.542	498.81
334.771	514.81
334.999	510.81
335.227	463.81
335.455	454.81
335.684	458.81
335.912	440.81
336.14	454.81
336.369	454.81
336.597	465.81
336.825	488.81
337.053	459.81
337.281	454.81
337.51	438.81
337.738	440.81
337.966	459.81
338.194	441.81
338.422	438.81
338.65	450.81
338.878	443.81
339.106	427.81
339.334	451.81
339.562	430.81
339.79	433.81
340.018	439.81
340.246	456.81
340.474	457.81
340.702	456.81
340.93	440.81
341.158	442.81
341.386	431.81
341.614	447.81
341.842	432.81
342.07	437.81
342.298	456.81
342.526	434.81
342.754	432.81
342.981	434.81
343.209	430.81
343.437	413.81
343.665	443.81
343.893	448.81
344.12	443.81
344.348	446.81
344.576	449.81
344.804	437.81
345.031	457.81
345.259	471.81
345.487	468.81
345.714	436.81
345.942	460.81
346.17	434.81
346.397	439.81
346.625	438.81
346.853	437.81
347.08	432.81
347.308	432.81
347.535	448.81
347.763	422.81
347.99	427.81
348.218	439.81
348.445	453.81
348.673	446.81
348.9	425.81
349.128	431.81
349.355	419.81
349.583	399.81
349.81	424.81
350.037	404.81
350.265	412.81
350.492	418.81
350.72	422.81
350.947	414.81
351.174	431.81
351.402	458.81
351.629	448.81
351.856	431.81
352.083	423.81
352.311	436.81
352.538	455.81
352.765	451.81
352.992	431.81
353.22	434.81
353.447	412.81
353.674	398.81
353.901	422.81
354.128	400.81
354.355	395.81
354.583	404.81
354.81	390.81
355.037	400.81
355.264	388.81
355.491	382.81
355.718	382.81
355.945	366.81
356.172	370.81
356.399	395.81
356.626	390.81
356.853	367.81
357.08	398.81
357.307	400.81
357.534	376.81
357.761	380.81
357.988	385.81
358.215	382.81
358.441	394.81
358.668	376.81
358.895	385.81
359.122	413.81
359.349	423.81
359.576	429.81
359.802	449.81
360.029	460.81
360.256	479.81
360.483	481.81
360.709	425.81
360.936	406.81
361.163	420.81
361.39	428.81
361.616	416.81
361.843	417.81
362.07	441.81
362.296	428.81
362.523	436.81
362.749	415.81
362.976	416.81
363.203	401.81
363.429	381.81
363.656	409.81
363.882	399.81
364.109	394.81
364.335	402.81
364.562	406.81
364.788	409.81
365.015	415.81
365.241	398.81
365.468	394.81
365.694	424.81
365.92	422.81
366.147	403.81
366.373	402.81
366.599	388.81
366.826	402.81
367.052	386.81
367.278	399.81
367.505	386.81
367.731	381.81
367.957	397.81
368.184	398.81
368.41	406.81
368.636	412.81
368.862	411.81
369.089	379.81
369.315	371.81
369.541	384.81
369.767	379.81
369.993	391.81
370.219	409.81
370.445	377.81
370.672	367.81
370.898	391.81
371.124	381.81
371.35	378.81
371.576	382.81
371.802	376.81
372.028	364.81
372.254	376.81
372.48	376.81
372.706	402.81
372.932	376.81
373.158	404.81
373.384	379.81
373.61	412.81
373.835	403.81
374.061	404.81
374.287	403.81
374.513	390.81
374.739	403.81
374.965	376.81
375.191	406.81
375.416	401.81
375.642	378.81
375.868	378.81
376.094	391.81
376.319	375.81
376.545	402.81
376.771	375.81
376.997	379.81
377.222	385.81
377.448	391.81
377.674	377.81
377.899	384.81
378.125	368.81
378.35	385.81
378.576	374.81
378.802	392.81
379.027	389.81
379.253	399.81
379.478	366.81
379.704	366.81
379.929	387.81
380.155	386.81
380.38	378.81
380.606	370.81
380.831	377.81
381.057	386.81
381.282	378.81
381.507	383.81
381.733	379.81
381.958	399.81
382.184	390.81
382.409	393.81
382.634	378.81
382.86	381.81
383.085	371.81
383.31	389.81
383.535	379.81
383.761	411.81
383.986	389.81
384.211	396.81
384.436	402.81
384.662	400.81
384.887	392.81
385.112	414.81
385.337	399.81
385.562	407.81
385.787	407.81
386.013	401.81
386.238	392.81
386.463	414.81
386.688	390.81
386.913	405.81
387.138	378.81
387.363	399.81
387.588	393.81
387.813	408.81
388.038	404.81
388.263	402.81
388.488	400.81
388.713	391.81
388.938	420.81
389.163	414.81
389.387	409.81
389.612	404.81
389.837	404.81
390.062	401.81
390.287	414.81
390.512	400.81
390.736	388.81
390.961	407.81
391.186	404.81
391.411	391.81
391.636	411.81
391.86	384.81
392.085	408.81
392.31	417.81
392.534	395.81
392.759	416.81
392.984	415.81
393.208	403.81
393.433	405.81
393.658	420.81
393.882	394.81
394.107	408.81
394.331	419.81
394.556	407.81
394.78	386.81
395.005	416.81
395.229	418.81
395.454	401.81
395.678	430.81
395.903	432.81
396.127	439.81
396.352	439.81
396.576	428.81
396.801	402.81
397.025	408.81
397.249	450.81
397.474	419.81
397.698	406.81
397.922	447.81
398.147	450.81
398.371	450.81
398.595	471.81
398.82	448.81
399.044	442.81
399.268	460.81
399.492	485.81
399.717	509.81
399.941	553.81
400.165	574.81
400.389	568.81
400.613	532.81
400.837	489.81
401.062	472.81
401.286	465.81
401.51	458.81
401.734	431.81
401.958	450.81
402.182	473.81
402.406	496.81
402.63	472.81
402.854	463.81
403.078	478.81
403.302	454.81
403.526	483.81
403.75	478.81
403.974	458.81
404.198	467.81
404.422	494.81
404.645	489.81
404.869	468.81
405.093	498.81
405.317	522.81
405.541	571.81
405.765	518.81
405.988	491.81
406.212	524.81
406.436	553.81
406.66	543.81
406.883	512.81
407.107	538.81
407.331	571.81
407.555	635.81
407.778	642.81
408.002	588.81
408.226	542.81
408.449	536.81
408.673	523.81
408.896	554.81
409.12	599.81
409.344	560.81
409.567	501.81
409.791	470.81
410.014	464.81
410.238	460.81
410.461	471.81
410.685	480.81
410.908	491.81
411.132	536.81
411.355	570.81
411.578	535.81
411.802	491.81
412.025	460.81
412.249	495.81
412.472	481.81
412.695	520.81
412.919	483.81
413.142	458.81
413.365	455.81
413.589	465.81
413.812	449.81
414.035	440.81
414.258	440.81
414.482	444.81
414.705	441.81
414.928	442.81
415.151	454.81
415.374	457.81
415.597	434.81
415.821	431.81
416.044	450.81
416.267	456.81
416.49	468.81
416.713	440.81
416.936	448.81
417.159	443.81
417.382	451.81
417.605	450.81
417.828	432.81
418.051	470.81
418.274	473.81
418.497	455.81
418.72	457.81
418.943	448.81
419.166	452.81
419.389	503.81
419.611	483.81
419.834	472.81
420.057	489.81
420.28	449.81
420.503	472.81
420.726	452.81
420.948	470.81
421.171	532.81
421.394	535.81
421.617	514.81
421.839	486.81
422.062	471.81
422.285	481.81
422.507	554.81
422.73	654.81
422.953	610.81
423.175	518.81
423.398	504.81
423.621	501.81
423.843	531.81
424.066	511.81
424.288	504.81
424.511	537.81
424.733	589.81
424.956	678.81
425.178	633.81
425.401	628.81
425.623	666.81
425.846	547.81
426.068	506.81
426.291	516.81
426.513	506.81
426.735	538.81
426.958	571.81
427.18	664.81
427.402	770.81
427.625	882.81
427.847	749.81
428.069	605.81
428.292	569.81
428.514	514.81
428.736	466.81
428.958	487.81
429.181	454.81
429.403	466.81
429.625	492.81
429.847	518.81
430.069	589.81
430.292	588.81
430.514	501.81
430.736	490.81
430.958	459.81
431.18	460.81
431.402	440.81
431.624	432.81
431.846	444.81
432.068	443.81
432.29	411.81
432.512	454.81
432.734	457.81
432.956	469.81
433.178	468.81
433.4	465.81
433.622	462.81
433.844	456.81
434.066	444.81
434.287	453.81
434.509	438.81
434.731	467.81
434.953	459.81
435.175	488.81
435.397	521.81
435.618	546.81
435.84	568.81
436.062	644.81
436.284	734.81
436.505	614.81
436.727	544.81
436.949	493.81
437.17	485.81
437.392	478.81
437.614	493.81
437.835	525.81
438.057	638.81
438.278	736.81
438.5	737.81
438.721	796.81
438.943	762.81
439.165	601.81
439.386	551.81
439.608	519.81
439.829	520.81
440.05	571.81
440.272	608.81
440.493	538.81
440.715	523.81
440.936	513.81
441.158	491.81
441.379	508.81
441.6	491.81
441.822	532.81
442.043	571.81
442.264	640.81
442.486	698.81
442.707	588.81
442.928	550.81
443.149	534.81
443.371	570.81
443.592	630.81
443.813	697.81
444.034	758.81
444.255	627.81
444.476	548.81
444.698	521.81
444.919	521.81
445.14	622.81
445.361	570.81
445.582	556.81
445.803	626.81
446.024	732.81
446.245	755.81
446.466	654.81
446.687	579.81
446.908	520.81
447.129	494.81
447.35	488.81
447.571	502.81
447.792	495.81
448.013	494.81
448.234	512.81
448.455	556.81
448.675	649.81
448.896	774.81
449.117	660.81
449.338	625.81
449.559	702.81
449.779	826.81
450	647.81
450.221	548.81
450.442	500.81
450.662	496.81
450.883	485.81
451.104	495.81
451.324	450.81
451.545	446.81
451.766	442.81
451.986	441.81
452.207	421.81
452.428	426.81
452.648	412.81
452.869	432.81
453.089	436.81
453.31	442.81
453.53	430.81
453.751	424.81
453.971	440.81
454.192	444.81
454.412	446.81
454.633	439.81
454.853	432.81
455.073	424.81
455.294	462.81
455.514	522.81
455.734	518.81
455.955	431.81
456.175	404.81
456.395	411.81
456.616	393.81
456.836	396.81
457.056	393.81
457.276	393.81
457.497	404.81
457.717	398.81
457.937	422.81
458.157	423.81
458.377	434.81
458.598	433.81
458.818	488.81
459.038	574.81
459.258	597.81
459.478	500.81
459.698	460.81
459.918	448.81
460.138	440.81
460.358	439.81
460.578	437.81
460.798	442.81
461.018	447.81
461.238	427.81
461.458	438.81
461.678	448.81
461.898	424.81
462.118	431.81
462.338	456.81
462.558	457.81
462.777	434.81
462.997	460.81
463.217	471.81
463.437	470.81
463.657	463.81
463.876	446.81
464.096	471.81
464.316	461.81
464.536	485.81
464.755	470.81
464.975	463.81
465.195	518.81
465.414	598.81
465.634	532.81
465.854	492.81
466.073	470.81
466.293	442.81
466.512	420.81
466.732	436.81
466.951	402.81
467.171	431.81
467.391	434.81
467.61	441.81
467.829	463.81
468.049	427.81
468.268	432.81
468.488	401.81
468.707	407.81
468.927	404.81
469.146	419.81
469.365	416.81
469.585	418.81
469.804	407.81
470.023	437.81
470.243	431.81
470.462	450.81
470.681	470.81
470.901	460.81
471.12	444.81
471.339	426.81
471.558	407.81
471.777	430.81
471.997	409.81
472.216	432.81
472.435	456.81
472.654	422.81
472.873	416.81
473.092	431.81
473.311	427.81
473.53	439.81
473.749	431.81
473.968	487.81
474.187	594.81
474.406	628.81
474.625	508.81
474.844	452.81
475.063	434.81
475.282	433.81
475.501	432.81
475.72	429.81
475.939	432.81
476.158	458.81
476.377	457.81
476.596	458.81
476.814	455.81
477.033	452.81
477.252	475.81
477.471	460.81
477.69	464.81
477.908	463.81
478.127	464.81
478.346	444.81
478.564	460.81
478.783	474.81
479.002	494.81
479.22	488.81
479.439	530.81
479.658	509.81
479.876	501.81
480.095	532.81
480.313	548.81
480.532	536.81
480.751	534.81
480.969	516.81
481.188	547.81
481.406	565.81
481.624	552.81
481.843	538.81
482.061	511.81
482.28	526.81
482.498	522.81
482.717	510.81
482.935	514.81
483.153	498.81
483.372	516.81
483.59	498.81
483.808	517.81
484.027	493.81
484.245	517.81
484.463	483.81
484.681	498.81
484.9	508.81
485.118	522.81
485.336	509.81
485.554	547.81
485.772	522.81
485.99	520.81
486.209	532.81
486.427	553.81
486.645	556.81
486.863	566.81
487.081	539.81
487.299	555.81
487.517	539.81
487.735	542.81
487.953	551.81
488.171	542.81
488.389	546.81
488.607	562.81
488.825	545.81
489.043	540.81
489.261	563.81
489.479	568.81
489.696	562.81
489.914	568.81
490.132	577.81
490.35	564.81
490.568	555.81
490.786	555.81
491.003	586.81
491.221	622.81
491.439	636.81
491.657	613.81
491.874	642.81
492.092	646.81
492.31	613.81
492.527	646.81
492.745	613.81
492.963	643.81
493.18	636.81
493.398	646.81
493.615	644.81
493.833	660.81
494.05	661.81
494.268	666.81
494.485	657.81
494.703	649.81
494.92	651.81
495.138	655.81
495.355	653.81
495.573	659.81
495.79	634.81
496.008	657.81
496.225	635.81
496.442	648.81
496.66	638.81
496.877	659.81
497.094	647.81
497.312	661.81
497.529	674.81
497.746	679.81
497.963	667.81
498.181	690.81
498.398	713.81
498.615	707.81
498.832	720.81
499.049	727.81
499.267	737.81
499.484	766.81
499.701	775.81
499.918	829.81
500.135	827.81
500.352	817.81
500.569	872.81
500.786	848.81
501.003	825.81
501.22	842.81
501.437	806.81
501.654	813.81
501.871	826.81
