Data from 1989.PennyLincolnUp.Lamp.En5.5.200Scan.071819.P2_HRD10591_17-25-27-974.txt Node
Date: Thu Jul 18 17:25:27 EDT 2019
User: cochatt
Spectrometer: HR+D1059
Trigger mode: 1
Integration Time (sec): 1.000000E-1
Scans to average: 1
Electric dark correction enabled: true
Nonlinearity correction enabled: false
Boxcar width: 0
XAxis mode: Wavelengths
Number of Pixels in Spectrum: 2048
>>>>>Begin Spectral Data<<<<<
223.165	-9.38
223.4	-9.38
223.635	-9.38
223.869	-18.38
224.104	-24.38
224.338	-2.38
224.573	-18.38
224.808	-11.38
225.042	-16.38
225.277	-12.38
225.511	0.62
225.746	9.62
225.98	0.62
226.215	8.62
226.449	24.62
226.683	30.62
226.918	19.62
227.152	18.62
227.387	29.62
227.621	31.62
227.856	37.62
228.09	34.62
228.324	43.62
228.559	57.62
228.793	58.62
229.027	97.62
229.262	120.62
229.496	124.62
229.73	135.62
229.964	162.62
230.199	123.62
230.433	121.62
230.667	103.62
230.901	117.62
231.136	113.62
231.37	101.62
231.604	115.62
231.838	123.62
232.072	114.62
232.306	123.62
232.541	121.62
232.775	117.62
233.009	107.62
233.243	118.62
233.477	105.62
233.711	111.62
233.945	109.62
234.179	123.62
234.413	115.62
234.647	123.62
234.881	97.62
235.115	127.62
235.349	116.62
235.583	125.62
235.817	128.62
236.051	129.62
236.285	125.62
236.519	121.62
236.753	145.62
236.987	137.62
237.221	205.62
237.455	245.62
237.689	205.62
237.922	139.62
238.156	125.62
238.39	156.62
238.624	115.62
238.858	129.62
239.091	120.62
239.325	144.62
239.559	137.62
239.793	131.62
240.027	138.62
240.26	158.62
240.494	155.62
240.728	159.62
240.961	156.62
241.195	151.62
241.429	144.62
241.662	140.62
241.896	131.62
242.13	145.62
242.363	125.62
242.597	136.62
242.83	146.62
243.064	130.62
243.298	137.62
243.531	131.62
243.765	153.62
243.998	152.62
244.232	140.62
244.465	142.62
244.699	151.62
244.932	147.62
245.166	162.62
245.399	154.62
245.633	149.62
245.866	161.62
246.099	166.62
246.333	155.62
246.566	157.62
246.8	176.62
247.033	171.62
247.266	163.62
247.5	174.62
247.733	177.62
247.966	191.62
248.2	193.62
248.433	181.62
248.666	196.62
248.899	192.62
249.133	232.62
249.366	227.62
249.599	231.62
249.832	200.62
250.066	201.62
250.299	193.62
250.532	194.62
250.765	214.62
250.998	252.62
251.231	248.62
251.465	233.62
251.698	234.62
251.931	226.62
252.164	199.62
252.397	201.62
252.63	208.62
252.863	219.62
253.096	216.62
253.329	243.62
253.562	246.62
253.795	233.62
254.028	242.62
254.261	238.62
254.494	244.62
254.727	265.62
254.96	297.62
255.193	305.62
255.426	278.62
255.659	261.62
255.892	275.62
256.124	268.62
256.357	268.62
256.59	258.62
256.823	239.62
257.056	235.62
257.289	237.62
257.521	222.62
257.754	237.62
257.987	238.62
258.22	213.62
258.452	215.62
258.685	214.62
258.918	222.62
259.151	216.62
259.383	233.62
259.616	214.62
259.849	244.62
260.081	259.62
260.314	276.62
260.547	270.62
260.779	266.62
261.012	253.62
261.244	262.62
261.477	247.62
261.71	255.62
261.942	252.62
262.175	267.62
262.407	242.62
262.64	228.62
262.872	229.62
263.105	242.62
263.337	220.62
263.57	235.62
263.802	239.62
264.035	217.62
264.267	228.62
264.499	227.62
264.732	241.62
264.964	230.62
265.197	235.62
265.429	240.62
265.661	230.62
265.894	233.62
266.126	229.62
266.358	227.62
266.591	250.62
266.823	215.62
267.055	237.62
267.287	246.62
267.52	251.62
267.752	239.62
267.984	238.62
268.216	244.62
268.448	255.62
268.681	262.62
268.913	281.62
269.145	261.62
269.377	304.62
269.609	297.62
269.841	292.62
270.073	294.62
270.306	305.62
270.538	353.62
270.77	372.62
271.002	338.62
271.234	319.62
271.466	317.62
271.698	339.62
271.93	355.62
272.162	343.62
272.394	354.62
272.626	341.62
272.858	342.62
273.09	318.62
273.322	309.62
273.553	290.62
273.785	291.62
274.017	289.62
274.249	295.62
274.481	290.62
274.713	286.62
274.945	291.62
275.176	309.62
275.408	292.62
275.64	267.62
275.872	293.62
276.104	282.62
276.335	280.62
276.567	288.62
276.799	321.62
277.031	325.62
277.262	352.62
277.494	363.62
277.726	319.62
277.957	317.62
278.189	307.62
278.421	296.62
278.652	312.62
278.884	290.62
279.115	289.62
279.347	277.62
279.579	285.62
279.81	283.62
280.042	290.62
280.273	283.62
280.505	276.62
280.736	276.62
280.968	285.62
281.199	277.62
281.431	265.62
281.662	282.62
281.894	293.62
282.125	288.62
282.356	319.62
282.588	338.62
282.819	323.62
283.051	294.62
283.282	297.62
283.513	305.62
283.745	296.62
283.976	317.62
284.207	285.62
284.439	289.62
284.67	317.62
284.901	282.62
285.132	299.62
285.364	294.62
285.595	285.62
285.826	295.62
286.057	303.62
286.288	304.62
286.52	310.62
286.751	286.62
286.982	292.62
287.213	301.62
287.444	303.62
287.675	322.62
287.906	312.62
288.138	325.62
288.369	338.62
288.6	328.62
288.831	315.62
289.062	314.62
289.293	322.62
289.524	297.62
289.755	306.62
289.986	315.62
290.217	297.62
290.448	287.62
290.679	300.62
290.91	302.62
291.141	320.62
291.371	311.62
291.602	314.62
291.833	293.62
292.064	302.62
292.295	318.62
292.526	314.62
292.757	305.62
292.987	304.62
293.218	302.62
293.449	317.62
293.68	326.62
293.91	296.62
294.141	299.62
294.372	297.62
294.603	317.62
294.833	295.62
295.064	321.62
295.295	307.62
295.525	307.62
295.756	307.62
295.987	339.62
296.217	346.62
296.448	343.62
296.679	307.62
296.909	296.62
297.14	314.62
297.37	334.62
297.601	331.62
297.831	316.62
298.062	313.62
298.292	313.62
298.523	311.62
298.753	311.62
298.984	298.62
299.214	325.62
299.445	315.62
299.675	342.62
299.905	325.62
300.136	323.62
300.366	312.62
300.597	336.62
300.827	331.62
301.057	351.62
301.288	326.62
301.518	357.62
301.748	350.62
301.979	345.62
302.209	346.62
302.439	344.62
302.669	348.62
302.9	343.62
303.13	359.62
303.36	361.62
303.59	341.62
303.82	341.62
304.051	345.62
304.281	353.62
304.511	355.62
304.741	333.62
304.971	349.62
305.201	346.62
305.431	336.62
305.661	344.62
305.891	347.62
306.121	344.62
306.352	347.62
306.582	360.62
306.812	328.62
307.042	330.62
307.272	356.62
307.502	335.62
307.731	355.62
307.961	349.62
308.191	329.62
308.421	342.62
308.651	330.62
308.881	339.62
309.111	356.62
309.341	359.62
309.571	378.62
309.8	405.62
310.03	375.62
310.26	388.62
310.49	400.62
310.72	419.62
310.949	426.62
311.179	437.62
311.409	388.62
311.639	417.62
311.868	405.62
312.098	415.62
312.328	420.62
312.557	424.62
312.787	455.62
313.017	420.62
313.246	412.62
313.476	405.62
313.706	400.62
313.935	396.62
314.165	420.62
314.394	440.62
314.624	423.62
314.853	407.62
315.083	419.62
315.312	426.62
315.542	387.62
315.771	379.62
316.001	389.62
316.23	403.62
316.46	381.62
316.689	395.62
316.919	404.62
317.148	392.62
317.377	410.62
317.607	414.62
317.836	419.62
318.065	408.62
318.295	397.62
318.524	397.62
318.753	392.62
318.983	381.62
319.212	408.62
319.441	400.62
319.67	430.62
319.9	428.62
320.129	397.62
320.358	404.62
320.587	412.62
320.816	416.62
321.046	435.62
321.275	449.62
321.504	416.62
321.733	446.62
321.962	447.62
322.191	447.62
322.42	470.62
322.649	498.62
322.878	501.62
323.108	496.62
323.337	542.62
323.566	580.62
323.795	610.62
324.024	664.62
324.253	817.62
324.482	1155.62
324.71	1821.62
324.939	2605.62
325.168	2260.62
325.397	1154.62
325.626	755.62
325.855	609.62
326.084	585.62
326.313	576.62
326.542	573.62
326.77	646.62
326.999	752.62
327.228	1061.62
327.457	1615.62
327.686	1973.62
327.914	1324.62
328.143	821.62
328.372	686.62
328.6	685.62
328.829	635.62
329.058	643.62
329.287	665.62
329.515	631.62
329.744	583.62
329.972	594.62
330.201	602.62
330.43	623.62
330.658	657.62
330.887	692.62
331.115	644.62
331.344	587.62
331.572	543.62
331.801	541.62
332.03	538.62
332.258	496.62
332.486	494.62
332.715	480.62
332.943	479.62
333.172	495.62
333.4	471.62
333.629	479.62
333.857	509.62
334.085	515.62
334.314	519.62
334.542	554.62
334.771	596.62
334.999	541.62
335.227	515.62
335.455	492.62
335.684	462.62
335.912	464.62
336.14	445.62
336.369	473.62
336.597	474.62
336.825	481.62
337.053	445.62
337.281	466.62
337.51	443.62
337.738	450.62
337.966	471.62
338.194	489.62
338.422	449.62
338.65	442.62
338.878	442.62
339.106	445.62
339.334	445.62
339.562	430.62
339.79	429.62
340.018	445.62
340.246	443.62
340.474	463.62
340.702	449.62
340.93	447.62
341.158	426.62
341.386	453.62
341.614	441.62
341.842	435.62
342.07	419.62
342.298	415.62
342.526	449.62
342.754	438.62
342.981	431.62
343.209	422.62
343.437	421.62
343.665	426.62
343.893	447.62
344.12	429.62
344.348	433.62
344.576	428.62
344.804	470.62
345.031	465.62
345.259	459.62
345.487	446.62
345.714	445.62
345.942	441.62
346.17	449.62
346.397	436.62
346.625	435.62
346.853	432.62
347.08	421.62
347.308	419.62
347.535	436.62
347.763	456.62
347.99	437.62
348.218	449.62
348.445	439.62
348.673	440.62
348.9	441.62
349.128	416.62
349.355	421.62
349.583	414.62
349.81	414.62
350.037	413.62
350.265	408.62
350.492	414.62
350.72	409.62
350.947	443.62
351.174	435.62
351.402	462.62
351.629	440.62
351.856	432.62
352.083	458.62
352.311	442.62
352.538	444.62
352.765	446.62
352.992	445.62
353.22	410.62
353.447	401.62
353.674	399.62
353.901	416.62
354.128	398.62
354.355	396.62
354.583	405.62
354.81	417.62
355.037	385.62
355.264	405.62
355.491	387.62
355.718	375.62
355.945	391.62
356.172	411.62
356.399	384.62
356.626	379.62
356.853	386.62
357.08	388.62
357.307	393.62
357.534	390.62
357.761	381.62
357.988	391.62
358.215	390.62
358.441	394.62
358.668	403.62
358.895	403.62
359.122	410.62
359.349	402.62
359.576	403.62
359.802	450.62
360.029	484.62
360.256	486.62
360.483	472.62
360.709	431.62
360.936	428.62
361.163	405.62
361.39	452.62
361.616	446.62
361.843	414.62
362.07	408.62
362.296	420.62
362.523	414.62
362.749	425.62
362.976	415.62
363.203	416.62
363.429	395.62
363.656	396.62
363.882	422.62
364.109	393.62
364.335	395.62
364.562	398.62
364.788	391.62
365.015	398.62
365.241	399.62
365.468	408.62
365.694	410.62
365.92	419.62
366.147	393.62
366.373	399.62
366.599	383.62
366.826	398.62
367.052	397.62
367.278	385.62
367.505	388.62
367.731	385.62
367.957	404.62
368.184	391.62
368.41	386.62
368.636	404.62
368.862	410.62
369.089	410.62
369.315	367.62
369.541	393.62
369.767	386.62
369.993	379.62
370.219	410.62
370.445	405.62
370.672	375.62
370.898	381.62
371.124	385.62
371.35	379.62
371.576	395.62
371.802	397.62
372.028	366.62
372.254	365.62
372.48	373.62
372.706	391.62
372.932	382.62
373.158	369.62
373.384	383.62
373.61	393.62
373.835	387.62
374.061	390.62
374.287	399.62
374.513	399.62
374.739	384.62
374.965	375.62
375.191	395.62
375.416	389.62
375.642	383.62
375.868	390.62
376.094	388.62
376.319	391.62
376.545	376.62
376.771	375.62
376.997	385.62
377.222	394.62
377.448	386.62
377.674	384.62
377.899	373.62
378.125	358.62
378.35	373.62
378.576	381.62
378.802	371.62
379.027	387.62
379.253	392.62
379.478	379.62
379.704	389.62
379.929	352.62
380.155	383.62
380.38	366.62
380.606	372.62
380.831	379.62
381.057	402.62
381.282	373.62
381.507	382.62
381.733	397.62
381.958	390.62
382.184	374.62
382.409	386.62
382.634	388.62
382.86	376.62
383.085	394.62
383.31	371.62
383.535	406.62
383.761	403.62
383.986	402.62
384.211	394.62
384.436	367.62
384.662	378.62
384.887	402.62
385.112	404.62
385.337	393.62
385.562	397.62
385.787	390.62
386.013	408.62
386.238	400.62
386.463	412.62
386.688	423.62
386.913	399.62
387.138	413.62
387.363	395.62
387.588	394.62
387.813	422.62
388.038	404.62
388.263	408.62
388.488	402.62
388.713	389.62
388.938	394.62
389.163	410.62
389.387	397.62
389.612	396.62
389.837	406.62
390.062	398.62
390.287	410.62
390.512	379.62
390.736	418.62
390.961	401.62
391.186	404.62
391.411	400.62
391.636	399.62
391.86	387.62
392.085	405.62
392.31	390.62
392.534	395.62
392.759	390.62
392.984	404.62
393.208	409.62
393.433	394.62
393.658	402.62
393.882	404.62
394.107	403.62
394.331	391.62
394.556	419.62
394.78	404.62
395.005	403.62
395.229	413.62
395.454	416.62
395.678	438.62
395.903	435.62
396.127	433.62
396.352	441.62
396.576	417.62
396.801	436.62
397.025	429.62
397.249	432.62
397.474	407.62
397.698	393.62
397.922	431.62
398.147	453.62
398.371	450.62
398.595	433.62
398.82	447.62
399.044	452.62
399.268	476.62
399.492	468.62
399.717	492.62
399.941	497.62
400.165	561.62
400.389	547.62
400.613	509.62
400.837	474.62
401.062	471.62
401.286	448.62
401.51	450.62
401.734	425.62
401.958	453.62
402.182	461.62
402.406	488.62
402.63	458.62
402.854	485.62
403.078	467.62
403.302	461.62
403.526	468.62
403.75	472.62
403.974	470.62
404.198	463.62
404.422	456.62
404.645	466.62
404.869	497.62
405.093	499.62
405.317	544.62
405.541	583.62
405.765	551.62
405.988	500.62
406.212	492.62
406.436	528.62
406.66	543.62
406.883	507.62
407.107	531.62
407.331	581.62
407.555	631.62
407.778	625.62
408.002	592.62
408.226	531.62
408.449	524.62
408.673	518.62
408.896	545.62
409.12	575.62
409.344	555.62
409.567	498.62
409.791	486.62
410.014	487.62
410.238	481.62
410.461	463.62
410.685	476.62
410.908	469.62
411.132	527.62
411.355	552.62
411.578	552.62
411.802	484.62
412.025	480.62
412.249	497.62
412.472	490.62
412.695	533.62
412.919	527.62
413.142	485.62
413.365	490.62
413.589	479.62
413.812	474.62
414.035	450.62
414.258	443.62
414.482	458.62
414.705	438.62
414.928	446.62
415.151	449.62
415.374	413.62
415.597	456.62
415.821	433.62
416.044	450.62
416.267	456.62
416.49	429.62
416.713	438.62
416.936	424.62
417.159	435.62
417.382	465.62
417.605	451.62
417.828	432.62
418.051	465.62
418.274	471.62
418.497	426.62
418.72	446.62
418.943	456.62
419.166	472.62
419.389	463.62
419.611	442.62
419.834	457.62
420.057	503.62
420.28	462.62
420.503	456.62
420.726	465.62
420.948	487.62
421.171	531.62
421.394	552.62
421.617	490.62
421.839	474.62
422.062	492.62
422.285	497.62
422.507	537.62
422.73	632.62
422.953	581.62
423.175	529.62
423.398	496.62
423.621	486.62
423.843	529.62
424.066	527.62
424.288	509.62
424.511	526.62
424.733	598.62
424.956	663.62
425.178	632.62
425.401	610.62
425.623	652.62
425.846	555.62
426.068	510.62
426.291	509.62
426.513	503.62
426.735	525.62
426.958	557.62
427.18	629.62
427.402	766.62
427.625	835.62
427.847	790.62
428.069	669.62
428.292	597.62
428.514	520.62
428.736	481.62
428.958	489.62
429.181	457.62
429.403	476.62
429.625	479.62
429.847	521.62
430.069	579.62
430.292	588.62
430.514	514.62
430.736	475.62
430.958	474.62
431.18	459.62
431.402	450.62
431.624	437.62
431.846	440.62
432.068	439.62
432.29	456.62
432.512	434.62
432.734	447.62
432.956	450.62
433.178	456.62
433.4	473.62
433.622	437.62
433.844	449.62
434.066	434.62
434.287	434.62
434.509	460.62
434.731	453.62
434.953	451.62
435.175	466.62
435.397	479.62
435.618	499.62
435.84	559.62
436.062	634.62
436.284	698.62
436.505	585.62
436.727	542.62
436.949	494.62
437.17	477.62
437.392	481.62
437.614	509.62
437.835	563.62
438.057	633.62
438.278	706.62
438.5	707.62
438.721	786.62
438.943	733.62
439.165	595.62
439.386	562.62
439.608	543.62
439.829	531.62
440.05	552.62
440.272	613.62
440.493	584.62
440.715	502.62
440.936	498.62
441.158	469.62
441.379	475.62
441.6	488.62
441.822	538.62
442.043	535.62
442.264	659.62
442.486	687.62
442.707	594.62
442.928	541.62
443.149	535.62
443.371	585.62
443.592	598.62
443.813	689.62
444.034	733.62
444.255	621.62
444.476	555.62
444.698	537.62
444.919	526.62
445.14	637.62
445.361	576.62
445.582	559.62
445.803	623.62
446.024	732.62
446.245	737.62
446.466	703.62
446.687	566.62
446.908	509.62
447.129	483.62
447.35	494.62
447.571	500.62
447.792	469.62
448.013	467.62
448.234	510.62
448.455	551.62
448.675	624.62
448.896	769.62
449.117	644.62
449.338	641.62
449.559	713.62
449.779	841.62
450	668.62
450.221	557.62
450.442	513.62
450.662	484.62
450.883	462.62
451.104	490.62
451.324	485.62
451.545	474.62
451.766	445.62
451.986	419.62
452.207	421.62
452.428	409.62
452.648	424.62
452.869	419.62
453.089	446.62
453.31	443.62
453.53	425.62
453.751	452.62
453.971	443.62
454.192	458.62
454.412	451.62
454.633	422.62
454.853	425.62
455.073	433.62
455.294	441.62
455.514	527.62
455.734	527.62
455.955	425.62
456.175	398.62
456.395	391.62
456.616	406.62
456.836	408.62
457.056	387.62
457.276	375.62
457.497	399.62
457.717	391.62
457.937	403.62
458.157	413.62
458.377	412.62
458.598	437.62
458.818	500.62
459.038	598.62
459.258	588.62
459.478	513.62
459.698	461.62
459.918	441.62
460.138	445.62
460.358	420.62
460.578	442.62
460.798	448.62
461.018	466.62
461.238	439.62
461.458	435.62
461.678	448.62
461.898	449.62
462.118	438.62
462.338	453.62
462.558	452.62
462.777	460.62
462.997	454.62
463.217	460.62
463.437	469.62
463.657	454.62
463.876	465.62
464.096	458.62
464.316	452.62
464.536	459.62
464.755	460.62
464.975	468.62
465.195	534.62
465.414	595.62
465.634	537.62
465.854	483.62
466.073	457.62
466.293	439.62
466.512	445.62
466.732	415.62
466.951	415.62
467.171	416.62
467.391	425.62
467.61	418.62
467.829	446.62
468.049	433.62
468.268	448.62
468.488	425.62
468.707	425.62
468.927	420.62
469.146	403.62
469.365	396.62
469.585	424.62
469.804	413.62
470.023	438.62
470.243	448.62
470.462	446.62
470.681	464.62
470.901	461.62
471.12	414.62
471.339	429.62
471.558	432.62
471.777	429.62
471.997	421.62
472.216	450.62
472.435	498.62
472.654	463.62
472.873	446.62
473.092	449.62
473.311	437.62
473.53	443.62
473.749	438.62
473.968	490.62
474.187	606.62
474.406	618.62
474.625	509.62
474.844	473.62
475.063	439.62
475.282	441.62
475.501	427.62
475.72	449.62
475.939	468.62
476.158	462.62
476.377	441.62
476.596	445.62
476.814	442.62
477.033	464.62
477.252	476.62
477.471	474.62
477.69	463.62
477.908	481.62
478.127	465.62
478.346	473.62
478.564	462.62
478.783	471.62
479.002	487.62
479.22	489.62
479.439	500.62
479.658	502.62
479.876	517.62
480.095	546.62
480.313	561.62
480.532	548.62
480.751	536.62
480.969	578.62
481.188	617.62
481.406	643.62
481.624	571.62
481.843	543.62
482.061	523.62
482.28	551.62
482.498	521.62
482.717	530.62
482.935	512.62
483.153	510.62
483.372	515.62
483.59	507.62
483.808	507.62
484.027	507.62
484.245	489.62
484.463	505.62
484.681	539.62
484.9	517.62
485.118	506.62
485.336	512.62
485.554	511.62
485.772	549.62
485.99	521.62
486.209	516.62
486.427	522.62
486.645	545.62
486.863	579.62
487.081	546.62
487.299	569.62
487.517	563.62
487.735	564.62
487.953	558.62
488.171	549.62
488.389	552.62
488.607	557.62
488.825	554.62
489.043	557.62
489.261	543.62
489.479	551.62
489.696	560.62
489.914	555.62
490.132	586.62
490.35	537.62
490.568	567.62
490.786	584.62
491.003	610.62
491.221	618.62
491.439	622.62
491.657	623.62
491.874	641.62
492.092	631.62
492.31	610.62
492.527	638.62
492.745	655.62
492.963	632.62
493.18	661.62
493.398	642.62
493.615	645.62
493.833	665.62
494.05	657.62
494.268	656.62
494.485	634.62
494.703	645.62
494.92	658.62
495.138	661.62
495.355	668.62
495.573	663.62
495.79	658.62
496.008	661.62
496.225	661.62
496.442	643.62
496.66	663.62
496.877	649.62
497.094	659.62
497.312	651.62
497.529	649.62
497.746	677.62
497.963	672.62
498.181	697.62
498.398	718.62
498.615	725.62
498.832	719.62
499.049	721.62
499.267	722.62
499.484	734.62
499.701	773.62
499.918	792.62
500.135	798.62
500.352	834.62
500.569	838.62
500.786	829.62
501.003	848.62
501.22	847.62
501.437	801.62
501.654	819.62
501.871	800.62
