Data from 1989.PennyLincolnUp.Lamp.En5.5.200Scan.071819.P2_HRD10591_17-24-16-973.txt Node
Date: Thu Jul 18 17:24:16 EDT 2019
User: cochatt
Spectrometer: HR+D1059
Trigger mode: 1
Integration Time (sec): 1.000000E-1
Scans to average: 1
Electric dark correction enabled: true
Nonlinearity correction enabled: false
Boxcar width: 0
XAxis mode: Wavelengths
Number of Pixels in Spectrum: 2048
>>>>>Begin Spectral Data<<<<<
223.165	-12.88
223.4	-12.88
223.635	-12.88
223.869	-24.88
224.104	-20.88
224.338	-15.88
224.573	-20.88
224.808	1.12
225.042	7.12
225.277	-4.88
225.511	-4.88
225.746	10.12
225.98	-5.88
226.215	15.12
226.449	-0.88
226.683	12.12
226.918	31.12
227.152	35.12
227.387	24.12
227.621	37.12
227.856	35.12
228.09	39.12
228.324	44.12
228.559	46.12
228.793	68.12
229.027	104.12
229.262	106.12
229.496	96.12
229.73	115.12
229.964	149.12
230.199	126.12
230.433	107.12
230.667	101.12
230.901	121.12
231.136	113.12
231.37	103.12
231.604	108.12
231.838	111.12
232.072	122.12
232.306	105.12
232.541	104.12
232.775	122.12
233.009	111.12
233.243	111.12
233.477	120.12
233.711	110.12
233.945	112.12
234.179	119.12
234.413	123.12
234.647	127.12
234.881	125.12
235.115	129.12
235.349	89.12
235.583	119.12
235.817	115.12
236.051	112.12
236.285	128.12
236.519	115.12
236.753	136.12
236.987	158.12
237.221	187.12
237.455	251.12
237.689	184.12
237.922	152.12
238.156	139.12
238.39	130.12
238.624	137.12
238.858	132.12
239.091	128.12
239.325	135.12
239.559	123.12
239.793	127.12
240.027	129.12
240.26	162.12
240.494	165.12
240.728	154.12
240.961	138.12
241.195	156.12
241.429	150.12
241.662	138.12
241.896	129.12
242.13	120.12
242.363	141.12
242.597	124.12
242.83	140.12
243.064	143.12
243.298	126.12
243.531	138.12
243.765	160.12
243.998	151.12
244.232	140.12
244.465	143.12
244.699	144.12
244.932	140.12
245.166	139.12
245.399	153.12
245.633	168.12
245.866	164.12
246.099	158.12
246.333	151.12
246.566	156.12
246.8	152.12
247.033	165.12
247.266	155.12
247.5	153.12
247.733	183.12
247.966	171.12
248.2	180.12
248.433	172.12
248.666	179.12
248.899	171.12
249.133	214.12
249.366	221.12
249.599	215.12
249.832	211.12
250.066	190.12
250.299	189.12
250.532	190.12
250.765	209.12
250.998	216.12
251.231	235.12
251.465	217.12
251.698	217.12
251.931	197.12
252.164	214.12
252.397	199.12
252.63	232.12
252.863	218.12
253.096	233.12
253.329	258.12
253.562	265.12
253.795	243.12
254.028	215.12
254.261	223.12
254.494	238.12
254.727	264.12
254.96	304.12
255.193	289.12
255.426	259.12
255.659	257.12
255.892	242.12
256.124	231.12
256.357	226.12
256.59	246.12
256.823	229.12
257.056	231.12
257.289	227.12
257.521	231.12
257.754	227.12
257.987	214.12
258.22	216.12
258.452	228.12
258.685	215.12
258.918	238.12
259.151	223.12
259.383	221.12
259.616	221.12
259.849	232.12
260.081	245.12
260.314	284.12
260.547	282.12
260.779	244.12
261.012	252.12
261.244	251.12
261.477	236.12
261.71	231.12
261.942	244.12
262.175	250.12
262.407	250.12
262.64	232.12
262.872	235.12
263.105	219.12
263.337	228.12
263.57	228.12
263.802	237.12
264.035	224.12
264.267	214.12
264.499	222.12
264.732	250.12
264.964	224.12
265.197	223.12
265.429	225.12
265.661	239.12
265.894	220.12
266.126	252.12
266.358	241.12
266.591	224.12
266.823	242.12
267.055	223.12
267.287	239.12
267.52	220.12
267.752	244.12
267.984	258.12
268.216	237.12
268.448	231.12
268.681	257.12
268.913	252.12
269.145	270.12
269.377	281.12
269.609	288.12
269.841	291.12
270.073	284.12
270.306	311.12
270.538	335.12
270.77	344.12
271.002	330.12
271.234	323.12
271.466	319.12
271.698	327.12
271.93	327.12
272.162	349.12
272.394	346.12
272.626	342.12
272.858	319.12
273.09	304.12
273.322	295.12
273.553	298.12
273.785	281.12
274.017	276.12
274.249	284.12
274.481	266.12
274.713	280.12
274.945	279.12
275.176	286.12
275.408	274.12
275.64	283.12
275.872	279.12
276.104	281.12
276.335	291.12
276.567	287.12
276.799	310.12
277.031	342.12
277.262	342.12
277.494	335.12
277.726	326.12
277.957	300.12
278.189	271.12
278.421	301.12
278.652	282.12
278.884	282.12
279.115	293.12
279.347	286.12
279.579	280.12
279.81	285.12
280.042	275.12
280.273	274.12
280.505	276.12
280.736	274.12
280.968	272.12
281.199	264.12
281.431	280.12
281.662	279.12
281.894	279.12
282.125	289.12
282.356	305.12
282.588	346.12
282.819	307.12
283.051	295.12
283.282	298.12
283.513	278.12
283.745	296.12
283.976	293.12
284.207	299.12
284.439	311.12
284.67	289.12
284.901	297.12
285.132	295.12
285.364	313.12
285.595	288.12
285.826	290.12
286.057	288.12
286.288	314.12
286.52	292.12
286.751	273.12
286.982	281.12
287.213	278.12
287.444	298.12
287.675	320.12
287.906	311.12
288.138	307.12
288.369	298.12
288.6	327.12
288.831	298.12
289.062	315.12
289.293	308.12
289.524	314.12
289.755	307.12
289.986	319.12
290.217	308.12
290.448	298.12
290.679	290.12
290.91	290.12
291.141	288.12
291.371	313.12
291.602	294.12
291.833	293.12
292.064	317.12
292.295	304.12
292.526	289.12
292.757	281.12
292.987	303.12
293.218	302.12
293.449	299.12
293.68	298.12
293.91	311.12
294.141	298.12
294.372	314.12
294.603	308.12
294.833	306.12
295.064	300.12
295.295	306.12
295.525	296.12
295.756	306.12
295.987	319.12
296.217	343.12
296.448	335.12
296.679	329.12
296.909	303.12
297.14	300.12
297.37	298.12
297.601	299.12
297.831	285.12
298.062	306.12
298.292	310.12
298.523	303.12
298.753	298.12
298.984	336.12
299.214	309.12
299.445	326.12
299.675	323.12
299.905	319.12
300.136	329.12
300.366	346.12
300.597	309.12
300.827	331.12
301.057	321.12
301.288	344.12
301.518	325.12
301.748	331.12
301.979	325.12
302.209	349.12
302.439	341.12
302.669	331.12
302.9	350.12
303.13	344.12
303.36	336.12
303.59	337.12
303.82	346.12
304.051	353.12
304.281	347.12
304.511	326.12
304.741	323.12
304.971	326.12
305.201	330.12
305.431	329.12
305.661	336.12
305.891	346.12
306.121	335.12
306.352	334.12
306.582	352.12
306.812	353.12
307.042	352.12
307.272	327.12
307.502	336.12
307.731	338.12
307.961	351.12
308.191	348.12
308.421	337.12
308.651	343.12
308.881	361.12
309.111	353.12
309.341	370.12
309.571	361.12
309.8	359.12
310.03	386.12
310.26	374.12
310.49	382.12
310.72	390.12
310.949	409.12
311.179	415.12
311.409	392.12
311.639	405.12
311.868	386.12
312.098	400.12
312.328	400.12
312.557	412.12
312.787	434.12
313.017	439.12
313.246	417.12
313.476	404.12
313.706	396.12
313.935	393.12
314.165	409.12
314.394	410.12
314.624	405.12
314.853	414.12
315.083	428.12
315.312	405.12
315.542	392.12
315.771	389.12
316.001	415.12
316.23	384.12
316.46	369.12
316.689	383.12
316.919	405.12
317.148	420.12
317.377	400.12
317.607	423.12
317.836	391.12
318.065	400.12
318.295	390.12
318.524	396.12
318.753	406.12
318.983	388.12
319.212	407.12
319.441	406.12
319.67	410.12
319.9	399.12
320.129	406.12
320.358	368.12
320.587	394.12
320.816	409.12
321.046	436.12
321.275	433.12
321.504	411.12
321.733	412.12
321.962	429.12
322.191	454.12
322.42	446.12
322.649	470.12
322.878	475.12
323.108	494.12
323.337	505.12
323.566	516.12
323.795	572.12
324.024	631.12
324.253	759.12
324.482	1090.12
324.71	1652.12
324.939	2331.12
325.168	2078.12
325.397	1080.12
325.626	691.12
325.855	620.12
326.084	556.12
326.313	528.12
326.542	560.12
326.77	611.12
326.999	704.12
327.228	951.12
327.457	1419.12
327.686	1772.12
327.914	1174.12
328.143	788.12
328.372	643.12
328.6	602.12
328.829	612.12
329.058	601.12
329.287	607.12
329.515	580.12
329.744	534.12
329.972	500.12
330.201	524.12
330.43	544.12
330.658	579.12
330.887	634.12
331.115	620.12
331.344	545.12
331.572	511.12
331.801	526.12
332.03	496.12
332.258	475.12
332.486	469.12
332.715	472.12
332.943	449.12
333.172	436.12
333.4	434.12
333.629	459.12
333.857	471.12
334.085	469.12
334.314	474.12
334.542	453.12
334.771	475.12
334.999	460.12
335.227	460.12
335.455	460.12
335.684	456.12
335.912	448.12
336.14	428.12
336.369	459.12
336.597	451.12
336.825	462.12
337.053	449.12
337.281	440.12
337.51	438.12
337.738	435.12
337.966	442.12
338.194	459.12
338.422	452.12
338.65	428.12
338.878	436.12
339.106	437.12
339.334	422.12
339.562	439.12
339.79	441.12
340.018	428.12
340.246	418.12
340.474	443.12
340.702	394.12
340.93	421.12
341.158	434.12
341.386	430.12
341.614	422.12
341.842	432.12
342.07	433.12
342.298	424.12
342.526	416.12
342.754	425.12
342.981	390.12
343.209	406.12
343.437	430.12
343.665	418.12
343.893	416.12
344.12	418.12
344.348	425.12
344.576	445.12
344.804	436.12
345.031	444.12
345.259	451.12
345.487	434.12
345.714	456.12
345.942	432.12
346.17	411.12
346.397	408.12
346.625	424.12
346.853	417.12
347.08	407.12
347.308	431.12
347.535	423.12
347.763	423.12
347.99	436.12
348.218	435.12
348.445	449.12
348.673	451.12
348.9	431.12
349.128	417.12
349.355	418.12
349.583	397.12
349.81	399.12
350.037	403.12
350.265	401.12
350.492	414.12
350.72	386.12
350.947	411.12
351.174	420.12
351.402	423.12
351.629	409.12
351.856	415.12
352.083	442.12
352.311	461.12
352.538	457.12
352.765	432.12
352.992	432.12
353.22	431.12
353.447	407.12
353.674	416.12
353.901	391.12
354.128	397.12
354.355	378.12
354.583	390.12
354.81	387.12
355.037	383.12
355.264	383.12
355.491	386.12
355.718	392.12
355.945	362.12
356.172	392.12
356.399	369.12
356.626	359.12
356.853	400.12
357.08	391.12
357.307	396.12
357.534	381.12
357.761	368.12
357.988	408.12
358.215	393.12
358.441	371.12
358.668	407.12
358.895	414.12
359.122	404.12
359.349	409.12
359.576	403.12
359.802	442.12
360.029	469.12
360.256	485.12
360.483	440.12
360.709	421.12
360.936	408.12
361.163	394.12
361.39	422.12
361.616	406.12
361.843	400.12
362.07	425.12
362.296	423.12
362.523	419.12
362.749	399.12
362.976	411.12
363.203	410.12
363.429	410.12
363.656	366.12
363.882	377.12
364.109	411.12
364.335	406.12
364.562	386.12
364.788	386.12
365.015	410.12
365.241	400.12
365.468	419.12
365.694	396.12
365.92	403.12
366.147	396.12
366.373	381.12
366.599	392.12
366.826	375.12
367.052	387.12
367.278	386.12
367.505	393.12
367.731	383.12
367.957	374.12
368.184	388.12
368.41	372.12
368.636	403.12
368.862	412.12
369.089	381.12
369.315	375.12
369.541	376.12
369.767	401.12
369.993	382.12
370.219	370.12
370.445	396.12
370.672	371.12
370.898	393.12
371.124	360.12
371.35	375.12
371.576	379.12
371.802	377.12
372.028	370.12
372.254	379.12
372.48	383.12
372.706	380.12
372.932	380.12
373.158	380.12
373.384	386.12
373.61	399.12
373.835	394.12
374.061	390.12
374.287	377.12
374.513	379.12
374.739	405.12
374.965	391.12
375.191	368.12
375.416	376.12
375.642	373.12
375.868	384.12
376.094	380.12
376.319	385.12
376.545	372.12
376.771	397.12
376.997	363.12
377.222	381.12
377.448	402.12
377.674	378.12
377.899	384.12
378.125	383.12
378.35	369.12
378.576	370.12
378.802	376.12
379.027	384.12
379.253	373.12
379.478	390.12
379.704	372.12
379.929	376.12
380.155	385.12
380.38	380.12
380.606	395.12
380.831	375.12
381.057	392.12
381.282	365.12
381.507	372.12
381.733	382.12
381.958	371.12
382.184	378.12
382.409	402.12
382.634	377.12
382.86	372.12
383.085	393.12
383.31	375.12
383.535	371.12
383.761	393.12
383.986	391.12
384.211	380.12
384.436	399.12
384.662	374.12
384.887	403.12
385.112	414.12
385.337	384.12
385.562	401.12
385.787	392.12
386.013	410.12
386.238	410.12
386.463	418.12
386.688	414.12
386.913	400.12
387.138	394.12
387.363	414.12
387.588	389.12
387.813	398.12
388.038	387.12
388.263	402.12
388.488	394.12
388.713	401.12
388.938	397.12
389.163	424.12
389.387	407.12
389.612	388.12
389.837	396.12
390.062	399.12
390.287	376.12
390.512	404.12
390.736	392.12
390.961	401.12
391.186	411.12
391.411	415.12
391.636	384.12
391.86	391.12
392.085	400.12
392.31	425.12
392.534	395.12
392.759	406.12
392.984	420.12
393.208	403.12
393.433	387.12
393.658	384.12
393.882	395.12
394.107	395.12
394.331	419.12
394.556	377.12
394.78	385.12
395.005	371.12
395.229	392.12
395.454	400.12
395.678	412.12
395.903	428.12
396.127	449.12
396.352	449.12
396.576	416.12
396.801	391.12
397.025	396.12
397.249	426.12
397.474	434.12
397.698	424.12
397.922	430.12
398.147	420.12
398.371	478.12
398.595	420.12
398.82	432.12
399.044	440.12
399.268	449.12
399.492	461.12
399.717	492.12
399.941	526.12
400.165	554.12
400.389	545.12
400.613	490.12
400.837	472.12
401.062	470.12
401.286	466.12
401.51	443.12
401.734	459.12
401.958	438.12
402.182	429.12
402.406	468.12
402.63	459.12
402.854	472.12
403.078	444.12
403.302	464.12
403.526	459.12
403.75	455.12
403.974	452.12
404.198	444.12
404.422	467.12
404.645	457.12
404.869	464.12
405.093	471.12
405.317	519.12
405.541	554.12
405.765	502.12
405.988	469.12
406.212	489.12
406.436	514.12
406.66	524.12
406.883	504.12
407.107	542.12
407.331	572.12
407.555	625.12
407.778	600.12
408.002	586.12
408.226	528.12
408.449	518.12
408.673	522.12
408.896	535.12
409.12	574.12
409.344	551.12
409.567	492.12
409.791	456.12
410.014	451.12
410.238	470.12
410.461	469.12
410.685	486.12
410.908	485.12
411.132	502.12
411.355	519.12
411.578	524.12
411.802	474.12
412.025	461.12
412.249	451.12
412.472	473.12
412.695	464.12
412.919	471.12
413.142	456.12
413.365	452.12
413.589	458.12
413.812	439.12
414.035	413.12
414.258	450.12
414.482	423.12
414.705	446.12
414.928	431.12
415.151	427.12
415.374	433.12
415.597	424.12
415.821	442.12
416.044	433.12
416.267	444.12
416.49	451.12
416.713	453.12
416.936	429.12
417.159	435.12
417.382	454.12
417.605	431.12
417.828	447.12
418.051	463.12
418.274	444.12
418.497	446.12
418.72	455.12
418.943	451.12
419.166	458.12
419.389	471.12
419.611	466.12
419.834	460.12
420.057	473.12
420.28	456.12
420.503	446.12
420.726	444.12
420.948	466.12
421.171	502.12
421.394	542.12
421.617	480.12
421.839	458.12
422.062	481.12
422.285	476.12
422.507	540.12
422.73	622.12
422.953	565.12
423.175	534.12
423.398	484.12
423.621	500.12
423.843	517.12
424.066	523.12
424.288	485.12
424.511	530.12
424.733	577.12
424.956	661.12
425.178	638.12
425.401	618.12
425.623	649.12
425.846	566.12
426.068	516.12
426.291	528.12
426.513	499.12
426.735	498.12
426.958	552.12
427.18	642.12
427.402	760.12
427.625	838.12
427.847	747.12
428.069	598.12
428.292	534.12
428.514	512.12
428.736	489.12
428.958	476.12
429.181	472.12
429.403	480.12
429.625	471.12
429.847	514.12
430.069	562.12
430.292	582.12
430.514	511.12
430.736	448.12
430.958	469.12
431.18	458.12
431.402	449.12
431.624	436.12
431.846	427.12
432.068	415.12
432.29	433.12
432.512	422.12
432.734	452.12
432.956	438.12
433.178	451.12
433.4	469.12
433.622	450.12
433.844	436.12
434.066	422.12
434.287	434.12
434.509	449.12
434.731	451.12
434.953	439.12
435.175	450.12
435.397	494.12
435.618	502.12
435.84	531.12
436.062	658.12
436.284	696.12
436.505	602.12
436.727	522.12
436.949	510.12
437.17	461.12
437.392	470.12
437.614	491.12
437.835	515.12
438.057	621.12
438.278	681.12
438.5	706.12
438.721	760.12
438.943	733.12
439.165	574.12
439.386	553.12
439.608	507.12
439.829	544.12
440.05	565.12
440.272	608.12
440.493	564.12
440.715	501.12
440.936	487.12
441.158	473.12
441.379	448.12
441.6	479.12
441.822	510.12
442.043	560.12
442.264	634.12
442.486	669.12
442.707	579.12
442.928	530.12
443.149	537.12
443.371	538.12
443.592	588.12
443.813	691.12
444.034	734.12
444.255	612.12
444.476	538.12
444.698	527.12
444.919	513.12
445.14	593.12
445.361	563.12
445.582	532.12
445.803	606.12
446.024	727.12
446.245	722.12
446.466	652.12
446.687	544.12
446.908	508.12
447.129	504.12
447.35	470.12
447.571	462.12
447.792	459.12
448.013	474.12
448.234	500.12
448.455	549.12
448.675	659.12
448.896	752.12
449.117	637.12
449.338	616.12
449.559	700.12
449.779	783.12
450	638.12
450.221	544.12
450.442	488.12
450.662	460.12
450.883	451.12
451.104	495.12
451.324	458.12
451.545	440.12
451.766	426.12
451.986	429.12
452.207	415.12
452.428	422.12
452.648	413.12
452.869	418.12
453.089	417.12
453.31	435.12
453.53	441.12
453.751	432.12
453.971	418.12
454.192	445.12
454.412	428.12
454.633	424.12
454.853	415.12
455.073	406.12
455.294	421.12
455.514	518.12
455.734	499.12
455.955	409.12
456.175	420.12
456.395	397.12
456.616	398.12
456.836	400.12
457.056	381.12
457.276	375.12
457.497	382.12
457.717	390.12
457.937	390.12
458.157	400.12
458.377	406.12
458.598	434.12
458.818	490.12
459.038	571.12
459.258	589.12
459.478	505.12
459.698	433.12
459.918	406.12
460.138	423.12
460.358	435.12
460.578	439.12
460.798	430.12
461.018	421.12
461.238	422.12
461.458	447.12
461.678	438.12
461.898	439.12
462.118	419.12
462.338	428.12
462.558	439.12
462.777	447.12
462.997	459.12
463.217	462.12
463.437	477.12
463.657	450.12
463.876	468.12
464.096	447.12
464.316	465.12
464.536	476.12
464.755	469.12
464.975	456.12
465.195	519.12
465.414	587.12
465.634	535.12
465.854	478.12
466.073	433.12
466.293	433.12
466.512	407.12
466.732	432.12
466.951	416.12
467.171	420.12
467.391	432.12
467.61	460.12
467.829	451.12
468.049	441.12
468.268	411.12
468.488	415.12
468.707	419.12
468.927	419.12
469.146	416.12
469.365	415.12
469.585	412.12
469.804	431.12
470.023	433.12
470.243	450.12
470.462	460.12
470.681	464.12
470.901	450.12
471.12	449.12
471.339	423.12
471.558	423.12
471.777	416.12
471.997	422.12
472.216	422.12
472.435	429.12
472.654	411.12
472.873	409.12
473.092	431.12
473.311	423.12
473.53	417.12
473.749	444.12
473.968	467.12
474.187	566.12
474.406	600.12
474.625	469.12
474.844	448.12
475.063	417.12
475.282	437.12
475.501	416.12
475.72	432.12
475.939	448.12
476.158	433.12
476.377	443.12
476.596	466.12
476.814	453.12
477.033	463.12
477.252	445.12
477.471	443.12
477.69	475.12
477.908	452.12
478.127	450.12
478.346	457.12
478.564	463.12
478.783	475.12
479.002	451.12
479.22	481.12
479.439	514.12
479.658	502.12
479.876	517.12
480.095	519.12
480.313	552.12
480.532	522.12
480.751	518.12
480.969	504.12
481.188	528.12
481.406	543.12
481.624	509.12
481.843	502.12
482.061	490.12
482.28	512.12
482.498	511.12
482.717	497.12
482.935	491.12
483.153	489.12
483.372	494.12
483.59	499.12
483.808	504.12
484.027	490.12
484.245	489.12
484.463	494.12
484.681	511.12
484.9	503.12
485.118	482.12
485.336	491.12
485.554	508.12
485.772	525.12
485.99	522.12
486.209	520.12
486.427	529.12
486.645	554.12
486.863	541.12
487.081	549.12
487.299	552.12
487.517	546.12
487.735	531.12
487.953	532.12
488.171	546.12
488.389	548.12
488.607	556.12
488.825	534.12
489.043	549.12
489.261	552.12
489.479	560.12
489.696	561.12
489.914	534.12
490.132	564.12
490.35	562.12
490.568	564.12
490.786	594.12
491.003	567.12
491.221	594.12
491.439	570.12
491.657	588.12
491.874	607.12
492.092	591.12
492.31	618.12
492.527	617.12
492.745	664.12
492.963	617.12
493.18	646.12
493.398	646.12
493.615	631.12
493.833	640.12
494.05	635.12
494.268	617.12
494.485	622.12
494.703	619.12
494.92	628.12
495.138	647.12
495.355	651.12
495.573	646.12
495.79	639.12
496.008	648.12
496.225	622.12
496.442	640.12
496.66	662.12
496.877	628.12
497.094	646.12
497.312	636.12
497.529	628.12
497.746	682.12
497.963	658.12
498.181	690.12
498.398	694.12
498.615	722.12
498.832	710.12
499.049	744.12
499.267	746.12
499.484	735.12
499.701	738.12
499.918	762.12
500.135	835.12
500.352	810.12
500.569	835.12
500.786	840.12
501.003	823.12
501.22	819.12
501.437	791.12
501.654	787.12
501.871	804.12
