Data from 1989.PennyLincolnUp.Lamp.En5.5.200Scan.071819.P2_HRD10591_17-25-38-974.txt Node
Date: Thu Jul 18 17:25:38 EDT 2019
User: cochatt
Spectrometer: HR+D1059
Trigger mode: 1
Integration Time (sec): 1.000000E-1
Scans to average: 1
Electric dark correction enabled: true
Nonlinearity correction enabled: false
Boxcar width: 0
XAxis mode: Wavelengths
Number of Pixels in Spectrum: 2048
>>>>>Begin Spectral Data<<<<<
223.165	-17.12
223.4	-17.12
223.635	-17.12
223.869	-23.12
224.104	-20.12
224.338	-23.12
224.573	-9.12
224.808	-13.12
225.042	5.88
225.277	2.88
225.511	-8.12
225.746	1.88
225.98	-3.12
226.215	5.88
226.449	13.88
226.683	28.88
226.918	24.88
227.152	32.88
227.387	25.88
227.621	29.88
227.856	48.88
228.09	44.88
228.324	32.88
228.559	56.88
228.793	44.88
229.027	109.88
229.262	116.88
229.496	128.88
229.73	148.88
229.964	144.88
230.199	138.88
230.433	116.88
230.667	114.88
230.901	110.88
231.136	124.88
231.37	108.88
231.604	109.88
231.838	117.88
232.072	104.88
232.306	110.88
232.541	112.88
232.775	130.88
233.009	118.88
233.243	122.88
233.477	119.88
233.711	126.88
233.945	112.88
234.179	116.88
234.413	111.88
234.647	117.88
234.881	121.88
235.115	126.88
235.349	109.88
235.583	106.88
235.817	127.88
236.051	111.88
236.285	123.88
236.519	128.88
236.753	131.88
236.987	151.88
237.221	210.88
237.455	243.88
237.689	202.88
237.922	146.88
238.156	136.88
238.39	136.88
238.624	137.88
238.858	105.88
239.091	117.88
239.325	116.88
239.559	139.88
239.793	156.88
240.027	143.88
240.26	147.88
240.494	164.88
240.728	150.88
240.961	162.88
241.195	165.88
241.429	154.88
241.662	140.88
241.896	136.88
242.13	147.88
242.363	140.88
242.597	138.88
242.83	152.88
243.064	140.88
243.298	135.88
243.531	140.88
243.765	168.88
243.998	146.88
244.232	132.88
244.465	140.88
244.699	155.88
244.932	142.88
245.166	140.88
245.399	155.88
245.633	170.88
245.866	144.88
246.099	152.88
246.333	163.88
246.566	166.88
246.8	167.88
247.033	170.88
247.266	171.88
247.5	176.88
247.733	171.88
247.966	188.88
248.2	178.88
248.433	176.88
248.666	201.88
248.899	201.88
249.133	218.88
249.366	222.88
249.599	213.88
249.832	201.88
250.066	200.88
250.299	220.88
250.532	231.88
250.765	241.88
250.998	248.88
251.231	256.88
251.465	250.88
251.698	237.88
251.931	223.88
252.164	206.88
252.397	210.88
252.63	235.88
252.863	216.88
253.096	245.88
253.329	263.88
253.562	252.88
253.795	268.88
254.028	261.88
254.261	218.88
254.494	261.88
254.727	280.88
254.96	313.88
255.193	305.88
255.426	284.88
255.659	262.88
255.892	266.88
256.124	274.88
256.357	268.88
256.59	259.88
256.823	250.88
257.056	251.88
257.289	235.88
257.521	238.88
257.754	239.88
257.987	244.88
258.22	247.88
258.452	222.88
258.685	244.88
258.918	246.88
259.151	220.88
259.383	254.88
259.616	233.88
259.849	261.88
260.081	260.88
260.314	283.88
260.547	299.88
260.779	275.88
261.012	275.88
261.244	254.88
261.477	258.88
261.71	233.88
261.942	269.88
262.175	247.88
262.407	259.88
262.64	242.88
262.872	228.88
263.105	233.88
263.337	244.88
263.57	245.88
263.802	246.88
264.035	216.88
264.267	210.88
264.499	222.88
264.732	235.88
264.964	223.88
265.197	233.88
265.429	228.88
265.661	227.88
265.894	227.88
266.126	233.88
266.358	238.88
266.591	252.88
266.823	253.88
267.055	268.88
267.287	240.88
267.52	243.88
267.752	247.88
267.984	264.88
268.216	246.88
268.448	266.88
268.681	260.88
268.913	268.88
269.145	264.88
269.377	309.88
269.609	304.88
269.841	305.88
270.073	309.88
270.306	333.88
270.538	337.88
270.77	349.88
271.002	325.88
271.234	347.88
271.466	337.88
271.698	345.88
271.93	340.88
272.162	343.88
272.394	356.88
272.626	330.88
272.858	329.88
273.09	318.88
273.322	312.88
273.553	285.88
273.785	304.88
274.017	276.88
274.249	297.88
274.481	282.88
274.713	292.88
274.945	280.88
275.176	293.88
275.408	309.88
275.64	289.88
275.872	300.88
276.104	300.88
276.335	304.88
276.567	304.88
276.799	294.88
277.031	320.88
277.262	356.88
277.494	349.88
277.726	356.88
277.957	314.88
278.189	315.88
278.421	301.88
278.652	280.88
278.884	299.88
279.115	304.88
279.347	284.88
279.579	307.88
279.81	296.88
280.042	283.88
280.273	284.88
280.505	290.88
280.736	283.88
280.968	291.88
281.199	290.88
281.431	304.88
281.662	292.88
281.894	307.88
282.125	300.88
282.356	310.88
282.588	334.88
282.819	335.88
283.051	304.88
283.282	298.88
283.513	294.88
283.745	304.88
283.976	294.88
284.207	294.88
284.439	311.88
284.67	301.88
284.901	312.88
285.132	312.88
285.364	284.88
285.595	302.88
285.826	278.88
286.057	304.88
286.288	307.88
286.52	297.88
286.751	309.88
286.982	327.88
287.213	310.88
287.444	321.88
287.675	316.88
287.906	318.88
288.138	317.88
288.369	305.88
288.6	317.88
288.831	340.88
289.062	322.88
289.293	311.88
289.524	316.88
289.755	301.88
289.986	323.88
290.217	306.88
290.448	323.88
290.679	320.88
290.91	322.88
291.141	297.88
291.371	331.88
291.602	304.88
291.833	326.88
292.064	316.88
292.295	316.88
292.526	314.88
292.757	301.88
292.987	310.88
293.218	313.88
293.449	322.88
293.68	324.88
293.91	303.88
294.141	318.88
294.372	309.88
294.603	303.88
294.833	329.88
295.064	308.88
295.295	328.88
295.525	310.88
295.756	315.88
295.987	309.88
296.217	340.88
296.448	352.88
296.679	351.88
296.909	318.88
297.14	334.88
297.37	321.88
297.601	313.88
297.831	334.88
298.062	312.88
298.292	313.88
298.523	322.88
298.753	310.88
298.984	333.88
299.214	340.88
299.445	341.88
299.675	329.88
299.905	331.88
300.136	314.88
300.366	334.88
300.597	351.88
300.827	347.88
301.057	353.88
301.288	366.88
301.518	356.88
301.748	354.88
301.979	354.88
302.209	353.88
302.439	362.88
302.669	331.88
302.9	346.88
303.13	347.88
303.36	359.88
303.59	353.88
303.82	364.88
304.051	353.88
304.281	345.88
304.511	342.88
304.741	373.88
304.971	346.88
305.201	370.88
305.431	349.88
305.661	357.88
305.891	352.88
306.121	357.88
306.352	344.88
306.582	364.88
306.812	386.88
307.042	349.88
307.272	376.88
307.502	369.88
307.731	381.88
307.961	331.88
308.191	355.88
308.421	372.88
308.651	373.88
308.881	382.88
309.111	378.88
309.341	366.88
309.571	388.88
309.8	380.88
310.03	392.88
310.26	409.88
310.49	404.88
310.72	426.88
310.949	418.88
311.179	441.88
311.409	413.88
311.639	397.88
311.868	408.88
312.098	398.88
312.328	425.88
312.557	444.88
312.787	445.88
313.017	456.88
313.246	425.88
313.476	428.88
313.706	413.88
313.935	418.88
314.165	429.88
314.394	425.88
314.624	439.88
314.853	425.88
315.083	397.88
315.312	407.88
315.542	397.88
315.771	408.88
316.001	406.88
316.23	396.88
316.46	402.88
316.689	416.88
316.919	416.88
317.148	418.88
317.377	427.88
317.607	416.88
317.836	414.88
318.065	410.88
318.295	413.88
318.524	406.88
318.753	390.88
318.983	410.88
319.212	391.88
319.441	414.88
319.67	428.88
319.9	420.88
320.129	406.88
320.358	413.88
320.587	442.88
320.816	444.88
321.046	450.88
321.275	448.88
321.504	437.88
321.733	443.88
321.962	457.88
322.191	465.88
322.42	506.88
322.649	490.88
322.878	501.88
323.108	496.88
323.337	531.88
323.566	579.88
323.795	579.88
324.024	663.88
324.253	806.88
324.482	1172.88
324.71	1755.88
324.939	2564.88
325.168	2238.88
325.397	1106.88
325.626	746.88
325.855	642.88
326.084	580.88
326.313	551.88
326.542	578.88
326.77	631.88
326.999	768.88
327.228	1036.88
327.457	1558.88
327.686	1911.88
327.914	1274.88
328.143	826.88
328.372	731.88
328.6	674.88
328.829	638.88
329.058	648.88
329.287	676.88
329.515	631.88
329.744	592.88
329.972	549.88
330.201	626.88
330.43	658.88
330.658	677.88
330.887	685.88
331.115	671.88
331.344	569.88
331.572	545.88
331.801	552.88
332.03	545.88
332.258	508.88
332.486	500.88
332.715	500.88
332.943	494.88
333.172	516.88
333.4	518.88
333.629	502.88
333.857	538.88
334.085	527.88
334.314	560.88
334.542	584.88
334.771	608.88
334.999	555.88
335.227	522.88
335.455	518.88
335.684	495.88
335.912	498.88
336.14	502.88
336.369	456.88
336.597	498.88
336.825	478.88
337.053	482.88
337.281	475.88
337.51	462.88
337.738	481.88
337.966	489.88
338.194	483.88
338.422	478.88
338.65	459.88
338.878	442.88
339.106	445.88
339.334	453.88
339.562	459.88
339.79	469.88
340.018	468.88
340.246	465.88
340.474	483.88
340.702	451.88
340.93	444.88
341.158	438.88
341.386	454.88
341.614	447.88
341.842	459.88
342.07	423.88
342.298	434.88
342.526	440.88
342.754	450.88
342.981	456.88
343.209	451.88
343.437	457.88
343.665	436.88
343.893	454.88
344.12	451.88
344.348	462.88
344.576	456.88
344.804	462.88
345.031	497.88
345.259	484.88
345.487	465.88
345.714	445.88
345.942	451.88
346.17	440.88
346.397	411.88
346.625	464.88
346.853	454.88
347.08	417.88
347.308	440.88
347.535	442.88
347.763	449.88
347.99	458.88
348.218	432.88
348.445	455.88
348.673	458.88
348.9	428.88
349.128	407.88
349.355	426.88
349.583	412.88
349.81	414.88
350.037	417.88
350.265	418.88
350.492	422.88
350.72	427.88
350.947	439.88
351.174	442.88
351.402	459.88
351.629	439.88
351.856	452.88
352.083	481.88
352.311	476.88
352.538	460.88
352.765	421.88
352.992	429.88
353.22	444.88
353.447	447.88
353.674	422.88
353.901	406.88
354.128	403.88
354.355	416.88
354.583	394.88
354.81	408.88
355.037	406.88
355.264	398.88
355.491	402.88
355.718	421.88
355.945	404.88
356.172	398.88
356.399	398.88
356.626	403.88
356.853	397.88
357.08	411.88
357.307	382.88
357.534	406.88
357.761	410.88
357.988	417.88
358.215	408.88
358.441	410.88
358.668	399.88
358.895	414.88
359.122	406.88
359.349	418.88
359.576	430.88
359.802	455.88
360.029	482.88
360.256	488.88
360.483	457.88
360.709	436.88
360.936	436.88
361.163	436.88
361.39	439.88
361.616	420.88
361.843	423.88
362.07	422.88
362.296	437.88
362.523	405.88
362.749	439.88
362.976	436.88
363.203	412.88
363.429	390.88
363.656	398.88
363.882	408.88
364.109	410.88
364.335	412.88
364.562	409.88
364.788	420.88
365.015	394.88
365.241	404.88
365.468	410.88
365.694	424.88
365.92	414.88
366.147	401.88
366.373	418.88
366.599	401.88
366.826	394.88
367.052	421.88
367.278	403.88
367.505	410.88
367.731	413.88
367.957	411.88
368.184	413.88
368.41	422.88
368.636	413.88
368.862	437.88
369.089	410.88
369.315	396.88
369.541	401.88
369.767	381.88
369.993	401.88
370.219	382.88
370.445	404.88
370.672	397.88
370.898	379.88
371.124	406.88
371.35	406.88
371.576	399.88
371.802	400.88
372.028	398.88
372.254	398.88
372.48	410.88
372.706	413.88
372.932	390.88
373.158	392.88
373.384	407.88
373.61	404.88
373.835	397.88
374.061	394.88
374.287	414.88
374.513	403.88
374.739	413.88
374.965	396.88
375.191	408.88
375.416	419.88
375.642	398.88
375.868	400.88
376.094	385.88
376.319	391.88
376.545	395.88
376.771	397.88
376.997	402.88
377.222	381.88
377.448	382.88
377.674	389.88
377.899	384.88
378.125	385.88
378.35	398.88
378.576	405.88
378.802	378.88
379.027	405.88
379.253	379.88
379.478	408.88
379.704	394.88
379.929	380.88
380.155	384.88
380.38	389.88
380.606	408.88
380.831	421.88
381.057	418.88
381.282	390.88
381.507	387.88
381.733	408.88
381.958	410.88
382.184	401.88
382.409	396.88
382.634	392.88
382.86	394.88
383.085	394.88
383.31	408.88
383.535	393.88
383.761	400.88
383.986	410.88
384.211	413.88
384.436	406.88
384.662	403.88
384.887	423.88
385.112	413.88
385.337	394.88
385.562	414.88
385.787	411.88
386.013	424.88
386.238	443.88
386.463	406.88
386.688	421.88
386.913	412.88
387.138	394.88
387.363	414.88
387.588	411.88
387.813	424.88
388.038	417.88
388.263	416.88
388.488	408.88
388.713	395.88
388.938	425.88
389.163	422.88
389.387	430.88
389.612	424.88
389.837	404.88
390.062	398.88
390.287	394.88
390.512	416.88
390.736	413.88
390.961	412.88
391.186	411.88
391.411	419.88
391.636	401.88
391.86	411.88
392.085	422.88
392.31	431.88
392.534	417.88
392.759	417.88
392.984	421.88
393.208	397.88
393.433	408.88
393.658	418.88
393.882	416.88
394.107	410.88
394.331	424.88
394.556	428.88
394.78	418.88
395.005	432.88
395.229	426.88
395.454	432.88
395.678	404.88
395.903	432.88
396.127	450.88
396.352	451.88
396.576	445.88
396.801	425.88
397.025	436.88
397.249	436.88
397.474	439.88
397.698	452.88
397.922	466.88
398.147	479.88
398.371	468.88
398.595	470.88
398.82	472.88
399.044	451.88
399.268	483.88
399.492	508.88
399.717	532.88
399.941	531.88
400.165	573.88
400.389	612.88
400.613	549.88
400.837	485.88
401.062	489.88
401.286	479.88
401.51	497.88
401.734	444.88
401.958	451.88
402.182	476.88
402.406	474.88
402.63	503.88
402.854	486.88
403.078	484.88
403.302	492.88
403.526	491.88
403.75	504.88
403.974	486.88
404.198	470.88
404.422	482.88
404.645	482.88
404.869	512.88
405.093	530.88
405.317	591.88
405.541	612.88
405.765	541.88
405.988	514.88
406.212	524.88
406.436	566.88
406.66	561.88
406.883	522.88
407.107	553.88
407.331	593.88
407.555	650.88
407.778	654.88
408.002	596.88
408.226	554.88
408.449	546.88
408.673	524.88
408.896	549.88
409.12	602.88
409.344	574.88
409.567	508.88
409.791	475.88
410.014	483.88
410.238	491.88
410.461	480.88
410.685	485.88
410.908	504.88
411.132	549.88
411.355	577.88
411.578	555.88
411.802	515.88
412.025	489.88
412.249	504.88
412.472	534.88
412.695	557.88
412.919	552.88
413.142	510.88
413.365	489.88
413.589	467.88
413.812	482.88
414.035	458.88
414.258	463.88
414.482	475.88
414.705	459.88
414.928	459.88
415.151	455.88
415.374	450.88
415.597	457.88
415.821	456.88
416.044	464.88
416.267	460.88
416.49	474.88
416.713	455.88
416.936	436.88
417.159	484.88
417.382	462.88
417.605	454.88
417.828	461.88
418.051	494.88
418.274	482.88
418.497	465.88
418.72	471.88
418.943	456.88
419.166	471.88
419.389	512.88
419.611	504.88
419.834	503.88
420.057	487.88
420.28	478.88
420.503	485.88
420.726	496.88
420.948	505.88
421.171	525.88
421.394	570.88
421.617	512.88
421.839	494.88
422.062	488.88
422.285	513.88
422.507	560.88
422.73	643.88
422.953	607.88
423.175	537.88
423.398	523.88
423.621	516.88
423.843	532.88
424.066	528.88
424.288	544.88
424.511	553.88
424.733	583.88
424.956	676.88
425.178	654.88
425.401	626.88
425.623	673.88
425.846	576.88
426.068	543.88
426.291	532.88
426.513	535.88
426.735	534.88
426.958	598.88
427.18	659.88
427.402	804.88
427.625	896.88
427.847	791.88
428.069	678.88
428.292	598.88
428.514	548.88
428.736	518.88
428.958	503.88
429.181	496.88
429.403	505.88
429.625	498.88
429.847	529.88
430.069	605.88
430.292	605.88
430.514	525.88
430.736	499.88
430.958	493.88
431.18	470.88
431.402	476.88
431.624	457.88
431.846	432.88
432.068	435.88
432.29	462.88
432.512	465.88
432.734	464.88
432.956	466.88
433.178	470.88
433.4	470.88
433.622	467.88
433.844	472.88
434.066	453.88
434.287	456.88
434.509	475.88
434.731	452.88
434.953	466.88
435.175	475.88
435.397	534.88
435.618	530.88
435.84	592.88
436.062	678.88
436.284	752.88
436.505	612.88
436.727	556.88
436.949	523.88
437.17	512.88
437.392	496.88
437.614	501.88
437.835	540.88
438.057	647.88
438.278	740.88
438.5	732.88
438.721	773.88
438.943	781.88
439.165	618.88
439.386	563.88
439.608	534.88
439.829	550.88
440.05	588.88
440.272	628.88
440.493	589.88
440.715	536.88
440.936	500.88
441.158	499.88
441.379	480.88
441.6	487.88
441.822	531.88
442.043	548.88
442.264	658.88
442.486	702.88
442.707	572.88
442.928	540.88
443.149	532.88
443.371	599.88
443.592	626.88
443.813	701.88
444.034	739.88
444.255	619.88
444.476	548.88
444.698	537.88
444.919	512.88
445.14	642.88
445.361	593.88
445.582	587.88
445.803	639.88
446.024	754.88
446.245	744.88
446.466	687.88
446.687	569.88
446.908	519.88
447.129	519.88
447.35	496.88
447.571	484.88
447.792	488.88
448.013	492.88
448.234	501.88
448.455	578.88
448.675	674.88
448.896	791.88
449.117	694.88
449.338	622.88
449.559	738.88
449.779	835.88
450	668.88
450.221	573.88
450.442	521.88
450.662	494.88
450.883	484.88
451.104	507.88
451.324	484.88
451.545	471.88
451.766	449.88
451.986	441.88
452.207	451.88
452.428	451.88
452.648	431.88
452.869	421.88
453.089	448.88
453.31	452.88
453.53	436.88
453.751	468.88
453.971	459.88
454.192	451.88
454.412	450.88
454.633	433.88
454.853	422.88
455.073	430.88
455.294	470.88
455.514	514.88
455.734	519.88
455.955	439.88
456.175	404.88
456.395	407.88
456.616	396.88
456.836	394.88
457.056	429.88
457.276	394.88
457.497	405.88
457.717	402.88
457.937	405.88
458.157	416.88
458.377	426.88
458.598	440.88
458.818	527.88
459.038	621.88
459.258	607.88
459.478	504.88
459.698	470.88
459.918	451.88
460.138	437.88
460.358	459.88
460.578	434.88
460.798	443.88
461.018	461.88
461.238	440.88
461.458	461.88
461.678	438.88
461.898	458.88
462.118	450.88
462.338	439.88
462.558	453.88
462.777	470.88
462.997	454.88
463.217	472.88
463.437	480.88
463.657	464.88
463.876	484.88
464.096	466.88
464.316	470.88
464.536	478.88
464.755	488.88
464.975	476.88
465.195	527.88
465.414	620.88
465.634	544.88
465.854	520.88
466.073	474.88
466.293	438.88
466.512	435.88
466.732	423.88
466.951	426.88
467.171	448.88
467.391	445.88
467.61	451.88
467.829	451.88
468.049	457.88
468.268	442.88
468.488	428.88
468.707	416.88
468.927	413.88
469.146	414.88
469.365	413.88
469.585	422.88
469.804	439.88
470.023	453.88
470.243	445.88
470.462	438.88
470.681	461.88
470.901	448.88
471.12	442.88
471.339	434.88
471.558	465.88
471.777	458.88
471.997	442.88
472.216	434.88
472.435	497.88
472.654	497.88
472.873	460.88
473.092	439.88
473.311	440.88
473.53	453.88
473.749	457.88
473.968	523.88
474.187	599.88
474.406	646.88
474.625	544.88
474.844	477.88
475.063	460.88
475.282	450.88
475.501	448.88
475.72	443.88
475.939	437.88
476.158	459.88
476.377	468.88
476.596	455.88
476.814	476.88
477.033	465.88
477.252	463.88
477.471	465.88
477.69	471.88
477.908	488.88
478.127	470.88
478.346	490.88
478.564	501.88
478.783	491.88
479.002	486.88
479.22	498.88
479.439	512.88
479.658	542.88
479.876	550.88
480.095	537.88
480.313	562.88
480.532	569.88
480.751	545.88
480.969	556.88
481.188	642.88
481.406	700.88
481.624	607.88
481.843	566.88
482.061	551.88
482.28	544.88
482.498	526.88
482.717	530.88
482.935	536.88
483.153	518.88
483.372	520.88
483.59	534.88
483.808	526.88
484.027	520.88
484.245	518.88
484.463	502.88
484.681	551.88
484.9	538.88
485.118	522.88
485.336	541.88
485.554	564.88
485.772	553.88
485.99	534.88
486.209	546.88
486.427	562.88
486.645	556.88
486.863	594.88
487.081	582.88
487.299	569.88
487.517	552.88
487.735	568.88
487.953	562.88
488.171	555.88
488.389	572.88
488.607	572.88
488.825	523.88
489.043	570.88
489.261	587.88
489.479	580.88
489.696	568.88
489.914	582.88
490.132	598.88
490.35	607.88
490.568	604.88
490.786	603.88
491.003	610.88
491.221	662.88
491.439	654.88
491.657	650.88
491.874	637.88
492.092	653.88
492.31	662.88
492.527	672.88
492.745	670.88
492.963	686.88
493.18	664.88
493.398	692.88
493.615	677.88
493.833	681.88
494.05	678.88
494.268	684.88
494.485	663.88
494.703	686.88
494.92	695.88
495.138	684.88
495.355	677.88
495.573	676.88
495.79	664.88
496.008	689.88
496.225	662.88
496.442	685.88
496.66	653.88
496.877	666.88
497.094	678.88
497.312	700.88
497.529	697.88
497.746	695.88
497.963	691.88
498.181	726.88
498.398	726.88
498.615	731.88
498.832	742.88
499.049	738.88
499.267	715.88
499.484	770.88
499.701	799.88
499.918	813.88
500.135	821.88
500.352	865.88
500.569	870.88
500.786	877.88
501.003	866.88
501.22	852.88
501.437	840.88
501.654	836.88
501.871	801.88
