Data from 1989.PennyLincolnUp.Lamp.En5.5.200Scan.071819.P2_HRD10591_17-25-07-973.txt Node
Date: Thu Jul 18 17:25:07 EDT 2019
User: cochatt
Spectrometer: HR+D1059
Trigger mode: 1
Integration Time (sec): 1.000000E-1
Scans to average: 1
Electric dark correction enabled: true
Nonlinearity correction enabled: false
Boxcar width: 0
XAxis mode: Wavelengths
Number of Pixels in Spectrum: 2048
>>>>>Begin Spectral Data<<<<<
223.165	-25.56
223.4	-25.56
223.635	-25.56
223.869	-27.56
224.104	-9.56
224.338	-14.56
224.573	-17.56
224.808	-13.56
225.042	1.44
225.277	-9.56
225.511	-1.56
225.746	-3.56
225.98	-2.56
226.215	12.44
226.449	23.44
226.683	29.44
226.918	26.44
227.152	32.44
227.387	50.44
227.621	28.44
227.856	47.44
228.09	42.44
228.324	44.44
228.559	49.44
228.793	67.44
229.027	111.44
229.262	91.44
229.496	126.44
229.73	122.44
229.964	155.44
230.199	134.44
230.433	116.44
230.667	120.44
230.901	114.44
231.136	125.44
231.37	101.44
231.604	99.44
231.838	118.44
232.072	119.44
232.306	110.44
232.541	97.44
232.775	127.44
233.009	119.44
233.243	121.44
233.477	113.44
233.711	120.44
233.945	112.44
234.179	116.44
234.413	139.44
234.647	107.44
234.881	113.44
235.115	110.44
235.349	115.44
235.583	123.44
235.817	126.44
236.051	130.44
236.285	132.44
236.519	121.44
236.753	143.44
236.987	150.44
237.221	194.44
237.455	227.44
237.689	200.44
237.922	154.44
238.156	145.44
238.39	139.44
238.624	126.44
238.858	128.44
239.091	138.44
239.325	140.44
239.559	123.44
239.793	122.44
240.027	134.44
240.26	141.44
240.494	147.44
240.728	152.44
240.961	167.44
241.195	156.44
241.429	143.44
241.662	149.44
241.896	143.44
242.13	143.44
242.363	131.44
242.597	140.44
242.83	132.44
243.064	152.44
243.298	132.44
243.531	130.44
243.765	151.44
243.998	135.44
244.232	146.44
244.465	134.44
244.699	154.44
244.932	156.44
245.166	148.44
245.399	151.44
245.633	153.44
245.866	164.44
246.099	164.44
246.333	154.44
246.566	158.44
246.8	167.44
247.033	187.44
247.266	158.44
247.5	190.44
247.733	177.44
247.966	174.44
248.2	179.44
248.433	190.44
248.666	175.44
248.899	198.44
249.133	205.44
249.366	219.44
249.599	213.44
249.832	179.44
250.066	199.44
250.299	195.44
250.532	207.44
250.765	219.44
250.998	230.44
251.231	244.44
251.465	229.44
251.698	203.44
251.931	215.44
252.164	207.44
252.397	222.44
252.63	215.44
252.863	211.44
253.096	230.44
253.329	240.44
253.562	239.44
253.795	243.44
254.028	226.44
254.261	217.44
254.494	259.44
254.727	263.44
254.96	295.44
255.193	308.44
255.426	283.44
255.659	260.44
255.892	266.44
256.124	248.44
256.357	247.44
256.59	233.44
256.823	233.44
257.056	226.44
257.289	248.44
257.521	234.44
257.754	234.44
257.987	239.44
258.22	230.44
258.452	237.44
258.685	229.44
258.918	222.44
259.151	232.44
259.383	252.44
259.616	238.44
259.849	256.44
260.081	257.44
260.314	276.44
260.547	290.44
260.779	274.44
261.012	271.44
261.244	250.44
261.477	247.44
261.71	262.44
261.942	252.44
262.175	252.44
262.407	242.44
262.64	247.44
262.872	257.44
263.105	243.44
263.337	237.44
263.57	235.44
263.802	223.44
264.035	224.44
264.267	222.44
264.499	200.44
264.732	210.44
264.964	225.44
265.197	219.44
265.429	226.44
265.661	238.44
265.894	228.44
266.126	228.44
266.358	227.44
266.591	236.44
266.823	256.44
267.055	246.44
267.287	246.44
267.52	244.44
267.752	236.44
267.984	228.44
268.216	261.44
268.448	254.44
268.681	236.44
268.913	280.44
269.145	293.44
269.377	302.44
269.609	291.44
269.841	306.44
270.073	294.44
270.306	336.44
270.538	340.44
270.77	352.44
271.002	362.44
271.234	334.44
271.466	339.44
271.698	321.44
271.93	343.44
272.162	359.44
272.394	357.44
272.626	346.44
272.858	328.44
273.09	316.44
273.322	311.44
273.553	292.44
273.785	291.44
274.017	281.44
274.249	291.44
274.481	292.44
274.713	286.44
274.945	296.44
275.176	287.44
275.408	289.44
275.64	265.44
275.872	295.44
276.104	295.44
276.335	300.44
276.567	287.44
276.799	312.44
277.031	357.44
277.262	348.44
277.494	339.44
277.726	354.44
277.957	328.44
278.189	303.44
278.421	291.44
278.652	311.44
278.884	292.44
279.115	320.44
279.347	300.44
279.579	293.44
279.81	289.44
280.042	295.44
280.273	288.44
280.505	295.44
280.736	294.44
280.968	280.44
281.199	305.44
281.431	294.44
281.662	276.44
281.894	284.44
282.125	305.44
282.356	320.44
282.588	341.44
282.819	336.44
283.051	302.44
283.282	294.44
283.513	295.44
283.745	302.44
283.976	310.44
284.207	296.44
284.439	322.44
284.67	314.44
284.901	305.44
285.132	309.44
285.364	276.44
285.595	315.44
285.826	292.44
286.057	286.44
286.288	304.44
286.52	318.44
286.751	304.44
286.982	308.44
287.213	311.44
287.444	306.44
287.675	300.44
287.906	308.44
288.138	322.44
288.369	332.44
288.6	316.44
288.831	329.44
289.062	328.44
289.293	316.44
289.524	326.44
289.755	304.44
289.986	294.44
290.217	300.44
290.448	308.44
290.679	315.44
290.91	284.44
291.141	304.44
291.371	318.44
291.602	316.44
291.833	314.44
292.064	316.44
292.295	299.44
292.526	319.44
292.757	298.44
292.987	300.44
293.218	311.44
293.449	352.44
293.68	312.44
293.91	325.44
294.141	290.44
294.372	302.44
294.603	303.44
294.833	313.44
295.064	295.44
295.295	319.44
295.525	311.44
295.756	323.44
295.987	333.44
296.217	361.44
296.448	361.44
296.679	339.44
296.909	298.44
297.14	311.44
297.37	319.44
297.601	324.44
297.831	324.44
298.062	323.44
298.292	319.44
298.523	327.44
298.753	326.44
298.984	332.44
299.214	313.44
299.445	335.44
299.675	349.44
299.905	325.44
300.136	337.44
300.366	337.44
300.597	339.44
300.827	334.44
301.057	330.44
301.288	356.44
301.518	354.44
301.748	337.44
301.979	340.44
302.209	352.44
302.439	359.44
302.669	356.44
302.9	350.44
303.13	331.44
303.36	354.44
303.59	348.44
303.82	360.44
304.051	363.44
304.281	352.44
304.511	359.44
304.741	355.44
304.971	344.44
305.201	347.44
305.431	357.44
305.661	349.44
305.891	334.44
306.121	347.44
306.352	338.44
306.582	354.44
306.812	343.44
307.042	363.44
307.272	370.44
307.502	361.44
307.731	367.44
307.961	361.44
308.191	338.44
308.421	351.44
308.651	339.44
308.881	371.44
309.111	376.44
309.341	376.44
309.571	378.44
309.8	394.44
310.03	383.44
310.26	403.44
310.49	421.44
310.72	421.44
310.949	424.44
311.179	426.44
311.409	419.44
311.639	390.44
311.868	391.44
312.098	408.44
312.328	408.44
312.557	440.44
312.787	444.44
313.017	436.44
313.246	420.44
313.476	400.44
313.706	399.44
313.935	402.44
314.165	416.44
314.394	436.44
314.624	453.44
314.853	424.44
315.083	401.44
315.312	408.44
315.542	404.44
315.771	411.44
316.001	395.44
316.23	388.44
316.46	416.44
316.689	393.44
316.919	418.44
317.148	445.44
317.377	410.44
317.607	420.44
317.836	398.44
318.065	394.44
318.295	400.44
318.524	422.44
318.753	393.44
318.983	394.44
319.212	419.44
319.441	418.44
319.67	415.44
319.9	384.44
320.129	411.44
320.358	421.44
320.587	430.44
320.816	444.44
321.046	459.44
321.275	457.44
321.504	449.44
321.733	427.44
321.962	428.44
322.191	453.44
322.42	480.44
322.649	491.44
322.878	472.44
323.108	508.44
323.337	528.44
323.566	555.44
323.795	588.44
324.024	642.44
324.253	771.44
324.482	1128.44
324.71	1744.44
324.939	2507.44
325.168	2162.44
325.397	1150.44
325.626	751.44
325.855	625.44
326.084	592.44
326.313	560.44
326.542	566.44
326.77	623.44
326.999	758.44
327.228	1003.44
327.457	1526.44
327.686	1920.44
327.914	1282.44
328.143	812.44
328.372	703.44
328.6	646.44
328.829	605.44
329.058	632.44
329.287	654.44
329.515	591.44
329.744	553.44
329.972	552.44
330.201	570.44
330.43	615.44
330.658	641.44
330.887	650.44
331.115	648.44
331.344	580.44
331.572	558.44
331.801	546.44
332.03	516.44
332.258	494.44
332.486	484.44
332.715	471.44
332.943	488.44
333.172	490.44
333.4	468.44
333.629	464.44
333.857	481.44
334.085	508.44
334.314	530.44
334.542	530.44
334.771	530.44
334.999	503.44
335.227	510.44
335.455	479.44
335.684	471.44
335.912	486.44
336.14	460.44
336.369	474.44
336.597	484.44
336.825	499.44
337.053	482.44
337.281	467.44
337.51	454.44
337.738	487.44
337.966	467.44
338.194	463.44
338.422	468.44
338.65	458.44
338.878	444.44
339.106	442.44
339.334	480.44
339.562	475.44
339.79	459.44
340.018	457.44
340.246	467.44
340.474	451.44
340.702	467.44
340.93	464.44
341.158	464.44
341.386	447.44
341.614	461.44
341.842	458.44
342.07	441.44
342.298	457.44
342.526	421.44
342.754	427.44
342.981	439.44
343.209	456.44
343.437	443.44
343.665	431.44
343.893	436.44
344.12	459.44
344.348	477.44
344.576	466.44
344.804	459.44
345.031	472.44
345.259	458.44
345.487	453.44
345.714	466.44
345.942	465.44
346.17	428.44
346.397	435.44
346.625	418.44
346.853	422.44
347.08	434.44
347.308	416.44
347.535	456.44
347.763	468.44
347.99	458.44
348.218	435.44
348.445	445.44
348.673	458.44
348.9	435.44
349.128	426.44
349.355	416.44
349.583	432.44
349.81	436.44
350.037	425.44
350.265	402.44
350.492	412.44
350.72	432.44
350.947	416.44
351.174	434.44
351.402	457.44
351.629	430.44
351.856	420.44
352.083	446.44
352.311	444.44
352.538	449.44
352.765	443.44
352.992	442.44
353.22	441.44
353.447	444.44
353.674	422.44
353.901	391.44
354.128	395.44
354.355	392.44
354.583	402.44
354.81	409.44
355.037	409.44
355.264	400.44
355.491	419.44
355.718	392.44
355.945	397.44
356.172	393.44
356.399	370.44
356.626	390.44
356.853	397.44
357.08	401.44
357.307	409.44
357.534	400.44
357.761	391.44
357.988	384.44
358.215	397.44
358.441	388.44
358.668	408.44
358.895	405.44
359.122	402.44
359.349	409.44
359.576	426.44
359.802	453.44
360.029	479.44
360.256	484.44
360.483	467.44
360.709	436.44
360.936	422.44
361.163	436.44
361.39	438.44
361.616	421.44
361.843	417.44
362.07	424.44
362.296	438.44
362.523	419.44
362.749	418.44
362.976	407.44
363.203	414.44
363.429	406.44
363.656	416.44
363.882	425.44
364.109	401.44
364.335	399.44
364.562	416.44
364.788	391.44
365.015	400.44
365.241	398.44
365.468	426.44
365.694	418.44
365.92	415.44
366.147	419.44
366.373	404.44
366.599	386.44
366.826	416.44
367.052	396.44
367.278	402.44
367.505	402.44
367.731	423.44
367.957	411.44
368.184	412.44
368.41	415.44
368.636	421.44
368.862	419.44
369.089	409.44
369.315	410.44
369.541	413.44
369.767	419.44
369.993	396.44
370.219	403.44
370.445	409.44
370.672	399.44
370.898	416.44
371.124	407.44
371.35	400.44
371.576	393.44
371.802	390.44
372.028	400.44
372.254	395.44
372.48	387.44
372.706	399.44
372.932	407.44
373.158	395.44
373.384	392.44
373.61	405.44
373.835	395.44
374.061	392.44
374.287	394.44
374.513	416.44
374.739	412.44
374.965	400.44
375.191	401.44
375.416	378.44
375.642	404.44
375.868	389.44
376.094	396.44
376.319	419.44
376.545	386.44
376.771	390.44
376.997	395.44
377.222	383.44
377.448	382.44
377.674	414.44
377.899	359.44
378.125	390.44
378.35	366.44
378.576	382.44
378.802	393.44
379.027	382.44
379.253	402.44
379.478	380.44
379.704	374.44
379.929	386.44
380.155	406.44
380.38	379.44
380.606	388.44
380.831	403.44
381.057	402.44
381.282	392.44
381.507	399.44
381.733	384.44
381.958	393.44
382.184	386.44
382.409	391.44
382.634	393.44
382.86	417.44
383.085	394.44
383.31	402.44
383.535	410.44
383.761	403.44
383.986	396.44
384.211	393.44
384.436	400.44
384.662	424.44
384.887	386.44
385.112	396.44
385.337	397.44
385.562	405.44
385.787	416.44
386.013	425.44
386.238	408.44
386.463	416.44
386.688	422.44
386.913	424.44
387.138	404.44
387.363	416.44
387.588	420.44
387.813	442.44
388.038	406.44
388.263	404.44
388.488	412.44
388.713	435.44
388.938	414.44
389.163	422.44
389.387	435.44
389.612	417.44
389.837	421.44
390.062	414.44
390.287	418.44
390.512	395.44
390.736	395.44
390.961	424.44
391.186	400.44
391.411	412.44
391.636	399.44
391.86	415.44
392.085	426.44
392.31	414.44
392.534	409.44
392.759	407.44
392.984	420.44
393.208	409.44
393.433	392.44
393.658	441.44
393.882	419.44
394.107	411.44
394.331	435.44
394.556	417.44
394.78	409.44
395.005	412.44
395.229	415.44
395.454	443.44
395.678	437.44
395.903	427.44
396.127	447.44
396.352	448.44
396.576	417.44
396.801	410.44
397.025	427.44
397.249	427.44
397.474	427.44
397.698	437.44
397.922	427.44
398.147	447.44
398.371	472.44
398.595	453.44
398.82	451.44
399.044	474.44
399.268	495.44
399.492	505.44
399.717	510.44
399.941	536.44
400.165	566.44
400.389	564.44
400.613	544.44
400.837	485.44
401.062	464.44
401.286	466.44
401.51	463.44
401.734	468.44
401.958	478.44
402.182	482.44
402.406	464.44
402.63	466.44
402.854	473.44
403.078	460.44
403.302	473.44
403.526	493.44
403.75	495.44
403.974	504.44
404.198	475.44
404.422	494.44
404.645	500.44
404.869	502.44
405.093	516.44
405.317	540.44
405.541	587.44
405.765	536.44
405.988	524.44
406.212	508.44
406.436	542.44
406.66	562.44
406.883	540.44
407.107	554.44
407.331	586.44
407.555	652.44
407.778	650.44
408.002	572.44
408.226	543.44
408.449	537.44
408.673	533.44
408.896	559.44
409.12	591.44
409.344	560.44
409.567	508.44
409.791	505.44
410.014	496.44
410.238	465.44
410.461	484.44
410.685	485.44
410.908	492.44
411.132	538.44
411.355	564.44
411.578	546.44
411.802	500.44
412.025	475.44
412.249	499.44
412.472	510.44
412.695	530.44
412.919	516.44
413.142	498.44
413.365	463.44
413.589	466.44
413.812	452.44
414.035	455.44
414.258	457.44
414.482	458.44
414.705	471.44
414.928	448.44
415.151	443.44
415.374	458.44
415.597	449.44
415.821	450.44
416.044	444.44
416.267	470.44
416.49	455.44
416.713	464.44
416.936	464.44
417.159	455.44
417.382	475.44
417.605	475.44
417.828	454.44
418.051	491.44
418.274	492.44
418.497	451.44
418.72	465.44
418.943	464.44
419.166	458.44
419.389	486.44
419.611	472.44
419.834	486.44
420.057	474.44
420.28	486.44
420.503	464.44
420.726	462.44
420.948	494.44
421.171	535.44
421.394	579.44
421.617	494.44
421.839	460.44
422.062	477.44
422.285	499.44
422.507	542.44
422.73	620.44
422.953	600.44
423.175	539.44
423.398	513.44
423.621	498.44
423.843	512.44
424.066	525.44
424.288	520.44
424.511	538.44
424.733	617.44
424.956	680.44
425.178	656.44
425.401	657.44
425.623	675.44
425.846	594.44
426.068	547.44
426.291	536.44
426.513	505.44
426.735	517.44
426.958	576.44
427.18	666.44
427.402	776.44
427.625	873.44
427.847	743.44
428.069	648.44
428.292	598.44
428.514	509.44
428.736	506.44
428.958	496.44
429.181	496.44
429.403	503.44
429.625	488.44
429.847	517.44
430.069	609.44
430.292	594.44
430.514	512.44
430.736	501.44
430.958	483.44
431.18	472.44
431.402	446.44
431.624	458.44
431.846	421.44
432.068	434.44
432.29	446.44
432.512	445.44
432.734	465.44
432.956	468.44
433.178	455.44
433.4	482.44
433.622	470.44
433.844	459.44
434.066	456.44
434.287	456.44
434.509	443.44
434.731	473.44
434.953	468.44
435.175	480.44
435.397	511.44
435.618	516.44
435.84	576.44
436.062	644.44
436.284	722.44
436.505	597.44
436.727	551.44
436.949	514.44
437.17	494.44
437.392	479.44
437.614	497.44
437.835	549.44
438.057	651.44
438.278	738.44
438.5	716.44
438.721	804.44
438.943	800.44
439.165	626.44
439.386	551.44
439.608	542.44
439.829	544.44
440.05	564.44
440.272	625.44
440.493	590.44
440.715	526.44
440.936	511.44
441.158	496.44
441.379	500.44
441.6	495.44
441.822	532.44
442.043	561.44
442.264	650.44
442.486	710.44
442.707	599.44
442.928	558.44
443.149	523.44
443.371	578.44
443.592	608.44
443.813	689.44
444.034	756.44
444.255	639.44
444.476	551.44
444.698	525.44
444.919	522.44
445.14	615.44
445.361	573.44
445.582	558.44
445.803	634.44
446.024	752.44
446.245	744.44
446.466	696.44
446.687	579.44
446.908	536.44
447.129	496.44
447.35	480.44
447.571	508.44
447.792	483.44
448.013	499.44
448.234	503.44
448.455	556.44
448.675	675.44
448.896	788.44
449.117	670.44
449.338	639.44
449.559	747.44
449.779	816.44
450	662.44
450.221	555.44
450.442	492.44
450.662	472.44
450.883	498.44
451.104	487.44
451.324	481.44
451.545	448.44
451.766	458.44
451.986	436.44
452.207	439.44
452.428	427.44
452.648	433.44
452.869	447.44
453.089	441.44
453.31	442.44
453.53	434.44
453.751	450.44
453.971	441.44
454.192	436.44
454.412	457.44
454.633	438.44
454.853	430.44
455.073	456.44
455.294	447.44
455.514	534.44
455.734	513.44
455.955	449.44
456.175	420.44
456.395	411.44
456.616	406.44
456.836	417.44
457.056	408.44
457.276	387.44
457.497	414.44
457.717	400.44
457.937	394.44
458.157	411.44
458.377	398.44
458.598	454.44
458.818	504.44
459.038	576.44
459.258	610.44
459.478	514.44
459.698	466.44
459.918	455.44
460.138	432.44
460.358	453.44
460.578	458.44
460.798	448.44
461.018	461.44
461.238	448.44
461.458	443.44
461.678	425.44
461.898	444.44
462.118	438.44
462.338	423.44
462.558	447.44
462.777	463.44
462.997	472.44
463.217	501.44
463.437	467.44
463.657	479.44
463.876	476.44
464.096	459.44
464.316	486.44
464.536	483.44
464.755	468.44
464.975	476.44
465.195	532.44
465.414	606.44
465.634	544.44
465.854	471.44
466.073	446.44
466.293	476.44
466.512	438.44
466.732	438.44
466.951	431.44
467.171	442.44
467.391	424.44
467.61	457.44
467.829	445.44
468.049	448.44
468.268	457.44
468.488	420.44
468.707	420.44
468.927	433.44
469.146	408.44
469.365	414.44
469.585	415.44
469.804	418.44
470.023	455.44
470.243	464.44
470.462	432.44
470.681	486.44
470.901	462.44
471.12	436.44
471.339	457.44
471.558	443.44
471.777	448.44
471.997	427.44
472.216	462.44
472.435	472.44
472.654	444.44
472.873	432.44
473.092	452.44
473.311	433.44
473.53	442.44
473.749	461.44
473.968	487.44
474.187	607.44
474.406	673.44
474.625	531.44
474.844	443.44
475.063	448.44
475.282	441.44
475.501	440.44
475.72	467.44
475.939	449.44
476.158	447.44
476.377	467.44
476.596	453.44
476.814	459.44
477.033	466.44
477.252	473.44
477.471	460.44
477.69	477.44
477.908	479.44
478.127	482.44
478.346	485.44
478.564	483.44
478.783	466.44
479.002	483.44
479.22	502.44
479.439	524.44
479.658	540.44
479.876	547.44
480.095	545.44
480.313	577.44
480.532	574.44
480.751	515.44
480.969	534.44
481.188	566.44
481.406	626.44
481.624	570.44
481.843	542.44
482.061	504.44
482.28	510.44
482.498	535.44
482.717	510.44
482.935	514.44
483.153	510.44
483.372	521.44
483.59	516.44
483.808	514.44
484.027	503.44
484.245	518.44
484.463	520.44
484.681	521.44
484.9	528.44
485.118	514.44
485.336	537.44
485.554	536.44
485.772	553.44
485.99	523.44
486.209	539.44
486.427	551.44
486.645	574.44
486.863	583.44
487.081	562.44
487.299	556.44
487.517	532.44
487.735	551.44
487.953	574.44
488.171	560.44
488.389	579.44
488.607	562.44
488.825	566.44
489.043	565.44
489.261	597.44
489.479	575.44
489.696	563.44
489.914	568.44
490.132	586.44
490.35	575.44
490.568	598.44
490.786	623.44
491.003	598.44
491.221	621.44
491.439	648.44
491.657	634.44
491.874	637.44
492.092	616.44
492.31	669.44
492.527	645.44
492.745	643.44
492.963	636.44
493.18	661.44
493.398	650.44
493.615	680.44
493.833	666.44
494.05	665.44
494.268	668.44
494.485	643.44
494.703	657.44
494.92	650.44
495.138	675.44
495.355	673.44
495.573	695.44
495.79	678.44
496.008	699.44
496.225	664.44
496.442	686.44
496.66	672.44
496.877	658.44
497.094	664.44
497.312	660.44
497.529	679.44
497.746	691.44
497.963	690.44
498.181	739.44
498.398	716.44
498.615	727.44
498.832	717.44
499.049	738.44
499.267	730.44
499.484	751.44
499.701	794.44
499.918	809.44
500.135	839.44
500.352	879.44
500.569	878.44
500.786	854.44
501.003	828.44
501.22	817.44
501.437	842.44
501.654	842.44
501.871	828.44
