Data from 1989.PennyLincolnUp.Lamp.En5.5.200Scan.071819.P2_HRD10591_17-25-48-974.txt Node
Date: Thu Jul 18 17:25:48 EDT 2019
User: cochatt
Spectrometer: HR+D1059
Trigger mode: 1
Integration Time (sec): 1.000000E-1
Scans to average: 1
Electric dark correction enabled: true
Nonlinearity correction enabled: false
Boxcar width: 0
XAxis mode: Wavelengths
Number of Pixels in Spectrum: 2048
>>>>>Begin Spectral Data<<<<<
223.165	-6.44
223.4	-6.44
223.635	-6.44
223.869	-13.44
224.104	-12.44
224.338	-6.44
224.573	-25.44
224.808	-16.44
225.042	-23.44
225.277	2.56
225.511	5.56
225.746	4.56
225.98	18.56
226.215	11.56
226.449	9.56
226.683	1.56
226.918	16.56
227.152	33.56
227.387	16.56
227.621	13.56
227.856	55.56
228.09	41.56
228.324	30.56
228.559	66.56
228.793	72.56
229.027	107.56
229.262	120.56
229.496	116.56
229.73	144.56
229.964	161.56
230.199	130.56
230.433	122.56
230.667	124.56
230.901	127.56
231.136	120.56
231.37	125.56
231.604	128.56
231.838	114.56
232.072	104.56
232.306	106.56
232.541	110.56
232.775	128.56
233.009	114.56
233.243	118.56
233.477	123.56
233.711	119.56
233.945	126.56
234.179	103.56
234.413	116.56
234.647	124.56
234.881	116.56
235.115	134.56
235.349	127.56
235.583	136.56
235.817	128.56
236.051	136.56
236.285	134.56
236.519	127.56
236.753	154.56
236.987	180.56
237.221	193.56
237.455	236.56
237.689	188.56
237.922	139.56
238.156	143.56
238.39	143.56
238.624	126.56
238.858	136.56
239.091	125.56
239.325	125.56
239.559	123.56
239.793	136.56
240.027	143.56
240.26	168.56
240.494	180.56
240.728	181.56
240.961	146.56
241.195	159.56
241.429	142.56
241.662	132.56
241.896	145.56
242.13	138.56
242.363	144.56
242.597	154.56
242.83	148.56
243.064	145.56
243.298	137.56
243.531	144.56
243.765	143.56
243.998	155.56
244.232	158.56
244.465	158.56
244.699	165.56
244.932	158.56
245.166	149.56
245.399	159.56
245.633	151.56
245.866	160.56
246.099	159.56
246.333	162.56
246.566	162.56
246.8	157.56
247.033	160.56
247.266	167.56
247.5	161.56
247.733	182.56
247.966	179.56
248.2	194.56
248.433	180.56
248.666	185.56
248.899	192.56
249.133	214.56
249.366	232.56
249.599	236.56
249.832	210.56
250.066	201.56
250.299	200.56
250.532	207.56
250.765	227.56
250.998	246.56
251.231	274.56
251.465	246.56
251.698	222.56
251.931	218.56
252.164	232.56
252.397	219.56
252.63	225.56
252.863	237.56
253.096	232.56
253.329	260.56
253.562	243.56
253.795	252.56
254.028	243.56
254.261	263.56
254.494	251.56
254.727	278.56
254.96	315.56
255.193	313.56
255.426	272.56
255.659	275.56
255.892	282.56
256.124	274.56
256.357	287.56
256.59	280.56
256.823	273.56
257.056	253.56
257.289	242.56
257.521	238.56
257.754	228.56
257.987	245.56
258.22	235.56
258.452	229.56
258.685	249.56
258.918	215.56
259.151	234.56
259.383	246.56
259.616	286.56
259.849	249.56
260.081	259.56
260.314	287.56
260.547	284.56
260.779	287.56
261.012	262.56
261.244	268.56
261.477	262.56
261.71	255.56
261.942	266.56
262.175	262.56
262.407	260.56
262.64	248.56
262.872	230.56
263.105	239.56
263.337	243.56
263.57	235.56
263.802	231.56
264.035	222.56
264.267	239.56
264.499	252.56
264.732	246.56
264.964	223.56
265.197	240.56
265.429	240.56
265.661	233.56
265.894	243.56
266.126	250.56
266.358	237.56
266.591	245.56
266.823	250.56
267.055	279.56
267.287	268.56
267.52	265.56
267.752	268.56
267.984	254.56
268.216	260.56
268.448	261.56
268.681	258.56
268.913	256.56
269.145	298.56
269.377	308.56
269.609	310.56
269.841	308.56
270.073	312.56
270.306	317.56
270.538	348.56
270.77	370.56
271.002	331.56
271.234	325.56
271.466	352.56
271.698	367.56
271.93	374.56
272.162	367.56
272.394	360.56
272.626	332.56
272.858	323.56
273.09	302.56
273.322	316.56
273.553	304.56
273.785	293.56
274.017	288.56
274.249	308.56
274.481	263.56
274.713	299.56
274.945	284.56
275.176	308.56
275.408	314.56
275.64	303.56
275.872	294.56
276.104	298.56
276.335	292.56
276.567	313.56
276.799	320.56
277.031	342.56
277.262	357.56
277.494	360.56
277.726	375.56
277.957	328.56
278.189	334.56
278.421	299.56
278.652	318.56
278.884	314.56
279.115	307.56
279.347	303.56
279.579	310.56
279.81	307.56
280.042	302.56
280.273	294.56
280.505	302.56
280.736	299.56
280.968	306.56
281.199	284.56
281.431	285.56
281.662	273.56
281.894	298.56
282.125	307.56
282.356	302.56
282.588	339.56
282.819	338.56
283.051	314.56
283.282	310.56
283.513	302.56
283.745	301.56
283.976	298.56
284.207	304.56
284.439	316.56
284.67	318.56
284.901	307.56
285.132	321.56
285.364	295.56
285.595	302.56
285.826	296.56
286.057	302.56
286.288	304.56
286.52	302.56
286.751	296.56
286.982	312.56
287.213	319.56
287.444	308.56
287.675	323.56
287.906	313.56
288.138	339.56
288.369	328.56
288.6	349.56
288.831	340.56
289.062	316.56
289.293	316.56
289.524	315.56
289.755	303.56
289.986	322.56
290.217	310.56
290.448	316.56
290.679	309.56
290.91	316.56
291.141	314.56
291.371	323.56
291.602	311.56
291.833	292.56
292.064	310.56
292.295	312.56
292.526	334.56
292.757	295.56
292.987	312.56
293.218	303.56
293.449	298.56
293.68	300.56
293.91	316.56
294.141	322.56
294.372	311.56
294.603	302.56
294.833	312.56
295.064	327.56
295.295	307.56
295.525	315.56
295.756	315.56
295.987	320.56
296.217	373.56
296.448	361.56
296.679	332.56
296.909	326.56
297.14	331.56
297.37	322.56
297.601	323.56
297.831	334.56
298.062	311.56
298.292	323.56
298.523	325.56
298.753	331.56
298.984	341.56
299.214	345.56
299.445	323.56
299.675	330.56
299.905	337.56
300.136	331.56
300.366	352.56
300.597	338.56
300.827	341.56
301.057	351.56
301.288	373.56
301.518	362.56
301.748	330.56
301.979	362.56
302.209	350.56
302.439	354.56
302.669	348.56
302.9	348.56
303.13	346.56
303.36	370.56
303.59	362.56
303.82	379.56
304.051	370.56
304.281	344.56
304.511	364.56
304.741	347.56
304.971	366.56
305.201	350.56
305.431	356.56
305.661	345.56
305.891	349.56
306.121	358.56
306.352	365.56
306.582	364.56
306.812	382.56
307.042	379.56
307.272	366.56
307.502	370.56
307.731	357.56
307.961	361.56
308.191	372.56
308.421	382.56
308.651	380.56
308.881	361.56
309.111	362.56
309.341	370.56
309.571	393.56
309.8	387.56
310.03	393.56
310.26	431.56
310.49	415.56
310.72	428.56
310.949	433.56
311.179	435.56
311.409	429.56
311.639	406.56
311.868	435.56
312.098	436.56
312.328	429.56
312.557	443.56
312.787	437.56
313.017	434.56
313.246	460.56
313.476	422.56
313.706	418.56
313.935	414.56
314.165	428.56
314.394	440.56
314.624	459.56
314.853	419.56
315.083	410.56
315.312	432.56
315.542	412.56
315.771	394.56
316.001	407.56
316.23	407.56
316.46	416.56
316.689	445.56
316.919	421.56
317.148	431.56
317.377	446.56
317.607	423.56
317.836	426.56
318.065	420.56
318.295	404.56
318.524	419.56
318.753	427.56
318.983	417.56
319.212	423.56
319.441	421.56
319.67	419.56
319.9	422.56
320.129	418.56
320.358	419.56
320.587	429.56
320.816	447.56
321.046	438.56
321.275	453.56
321.504	446.56
321.733	463.56
321.962	455.56
322.191	470.56
322.42	486.56
322.649	486.56
322.878	519.56
323.108	530.56
323.337	554.56
323.566	571.56
323.795	622.56
324.024	682.56
324.253	829.56
324.482	1172.56
324.71	1812.56
324.939	2652.56
325.168	2283.56
325.397	1163.56
325.626	799.56
325.855	670.56
326.084	579.56
326.313	574.56
326.542	591.56
326.77	635.56
326.999	770.56
327.228	1058.56
327.457	1598.56
327.686	1956.56
327.914	1332.56
328.143	863.56
328.372	729.56
328.6	719.56
328.829	661.56
329.058	676.56
329.287	677.56
329.515	640.56
329.744	576.56
329.972	580.56
330.201	635.56
330.43	683.56
330.658	679.56
330.887	714.56
331.115	683.56
331.344	602.56
331.572	574.56
331.801	577.56
332.03	562.56
332.258	536.56
332.486	517.56
332.715	505.56
332.943	493.56
333.172	513.56
333.4	501.56
333.629	504.56
333.857	533.56
334.085	560.56
334.314	568.56
334.542	642.56
334.771	631.56
334.999	575.56
335.227	532.56
335.455	524.56
335.684	502.56
335.912	471.56
336.14	468.56
336.369	485.56
336.597	485.56
336.825	488.56
337.053	491.56
337.281	468.56
337.51	467.56
337.738	477.56
337.966	480.56
338.194	481.56
338.422	483.56
338.65	457.56
338.878	474.56
339.106	464.56
339.334	462.56
339.562	457.56
339.79	468.56
340.018	449.56
340.246	469.56
340.474	454.56
340.702	469.56
340.93	470.56
341.158	473.56
341.386	478.56
341.614	451.56
341.842	444.56
342.07	446.56
342.298	450.56
342.526	455.56
342.754	422.56
342.981	439.56
343.209	440.56
343.437	458.56
343.665	432.56
343.893	453.56
344.12	464.56
344.348	456.56
344.576	475.56
344.804	464.56
345.031	456.56
345.259	486.56
345.487	466.56
345.714	465.56
345.942	446.56
346.17	463.56
346.397	464.56
346.625	422.56
346.853	447.56
347.08	425.56
347.308	457.56
347.535	447.56
347.763	456.56
347.99	469.56
348.218	452.56
348.445	470.56
348.673	458.56
348.9	438.56
349.128	462.56
349.355	431.56
349.583	415.56
349.81	438.56
350.037	436.56
350.265	413.56
350.492	434.56
350.72	424.56
350.947	432.56
351.174	458.56
351.402	420.56
351.629	442.56
351.856	454.56
352.083	452.56
352.311	449.56
352.538	457.56
352.765	458.56
352.992	454.56
353.22	446.56
353.447	439.56
353.674	426.56
353.901	433.56
354.128	412.56
354.355	412.56
354.583	383.56
354.81	387.56
355.037	408.56
355.264	392.56
355.491	379.56
355.718	422.56
355.945	412.56
356.172	396.56
356.399	408.56
356.626	398.56
356.853	442.56
357.08	422.56
357.307	396.56
357.534	390.56
357.761	381.56
357.988	396.56
358.215	396.56
358.441	401.56
358.668	400.56
358.895	398.56
359.122	410.56
359.349	412.56
359.576	431.56
359.802	479.56
360.029	487.56
360.256	483.56
360.483	470.56
360.709	440.56
360.936	438.56
361.163	448.56
361.39	426.56
361.616	430.56
361.843	431.56
362.07	421.56
362.296	427.56
362.523	422.56
362.749	453.56
362.976	434.56
363.203	423.56
363.429	398.56
363.656	412.56
363.882	412.56
364.109	391.56
364.335	408.56
364.562	429.56
364.788	401.56
365.015	391.56
365.241	413.56
365.468	401.56
365.694	444.56
365.92	438.56
366.147	423.56
366.373	388.56
366.599	408.56
366.826	395.56
367.052	413.56
367.278	386.56
367.505	400.56
367.731	410.56
367.957	391.56
368.184	412.56
368.41	423.56
368.636	417.56
368.862	416.56
369.089	421.56
369.315	416.56
369.541	424.56
369.767	416.56
369.993	405.56
370.219	418.56
370.445	412.56
370.672	415.56
370.898	428.56
371.124	378.56
371.35	408.56
371.576	396.56
371.802	390.56
372.028	370.56
372.254	393.56
372.48	388.56
372.706	407.56
372.932	406.56
373.158	401.56
373.384	403.56
373.61	391.56
373.835	411.56
374.061	390.56
374.287	394.56
374.513	375.56
374.739	386.56
374.965	396.56
375.191	412.56
375.416	396.56
375.642	405.56
375.868	417.56
376.094	407.56
376.319	401.56
376.545	405.56
376.771	401.56
376.997	392.56
377.222	389.56
377.448	396.56
377.674	381.56
377.899	385.56
378.125	401.56
378.35	385.56
378.576	400.56
378.802	383.56
379.027	382.56
379.253	380.56
379.478	380.56
379.704	388.56
379.929	401.56
380.155	381.56
380.38	398.56
380.606	395.56
380.831	372.56
381.057	407.56
381.282	404.56
381.507	409.56
381.733	386.56
381.958	390.56
382.184	376.56
382.409	401.56
382.634	404.56
382.86	400.56
383.085	404.56
383.31	416.56
383.535	408.56
383.761	394.56
383.986	388.56
384.211	394.56
384.436	414.56
384.662	396.56
384.887	418.56
385.112	393.56
385.337	401.56
385.562	404.56
385.787	401.56
386.013	430.56
386.238	436.56
386.463	429.56
386.688	425.56
386.913	384.56
387.138	407.56
387.363	409.56
387.588	427.56
387.813	394.56
388.038	398.56
388.263	419.56
388.488	419.56
388.713	414.56
388.938	404.56
389.163	417.56
389.387	410.56
389.612	411.56
389.837	424.56
390.062	408.56
390.287	407.56
390.512	412.56
390.736	411.56
390.961	414.56
391.186	402.56
391.411	422.56
391.636	412.56
391.86	417.56
392.085	412.56
392.31	418.56
392.534	412.56
392.759	444.56
392.984	428.56
393.208	418.56
393.433	431.56
393.658	435.56
393.882	398.56
394.107	392.56
394.331	430.56
394.556	427.56
394.78	409.56
395.005	428.56
395.229	419.56
395.454	425.56
395.678	424.56
395.903	454.56
396.127	453.56
396.352	449.56
396.576	439.56
396.801	408.56
397.025	421.56
397.249	438.56
397.474	434.56
397.698	432.56
397.922	441.56
398.147	463.56
398.371	443.56
398.595	454.56
398.82	451.56
399.044	443.56
399.268	488.56
399.492	504.56
399.717	524.56
399.941	531.56
400.165	563.56
400.389	574.56
400.613	552.56
400.837	514.56
401.062	491.56
401.286	482.56
401.51	482.56
401.734	459.56
401.958	459.56
402.182	459.56
402.406	478.56
402.63	495.56
402.854	492.56
403.078	483.56
403.302	485.56
403.526	498.56
403.75	477.56
403.974	478.56
404.198	485.56
404.422	495.56
404.645	482.56
404.869	489.56
405.093	550.56
405.317	573.56
405.541	632.56
405.765	579.56
405.988	537.56
406.212	548.56
406.436	566.56
406.66	551.56
406.883	524.56
407.107	527.56
407.331	584.56
407.555	659.56
407.778	648.56
408.002	594.56
408.226	562.56
408.449	538.56
408.673	508.56
408.896	562.56
409.12	594.56
409.344	584.56
409.567	491.56
409.791	512.56
410.014	491.56
410.238	480.56
410.461	484.56
410.685	490.56
410.908	488.56
411.132	557.56
411.355	564.56
411.578	536.56
411.802	506.56
412.025	509.56
412.249	502.56
412.472	552.56
412.695	600.56
412.919	587.56
413.142	506.56
413.365	489.56
413.589	493.56
413.812	479.56
414.035	462.56
414.258	452.56
414.482	441.56
414.705	451.56
414.928	449.56
415.151	438.56
415.374	462.56
415.597	436.56
415.821	462.56
416.044	453.56
416.267	468.56
416.49	460.56
416.713	455.56
416.936	474.56
417.159	454.56
417.382	467.56
417.605	469.56
417.828	464.56
418.051	487.56
418.274	495.56
418.497	477.56
418.72	461.56
418.943	439.56
419.166	476.56
419.389	491.56
419.611	465.56
419.834	500.56
420.057	488.56
420.28	490.56
420.503	510.56
420.726	518.56
420.948	514.56
421.171	539.56
421.394	576.56
421.617	508.56
421.839	499.56
422.062	488.56
422.285	528.56
422.507	553.56
422.73	642.56
422.953	618.56
423.175	549.56
423.398	506.56
423.621	513.56
423.843	527.56
424.066	526.56
424.288	525.56
424.511	541.56
424.733	617.56
424.956	688.56
425.178	662.56
425.401	656.56
425.623	670.56
425.846	584.56
426.068	560.56
426.291	529.56
426.513	516.56
426.735	546.56
426.958	589.56
427.18	656.56
427.402	791.56
427.625	880.56
427.847	781.56
428.069	673.56
428.292	602.56
428.514	545.56
428.736	534.56
428.958	516.56
429.181	490.56
429.403	486.56
429.625	492.56
429.847	541.56
430.069	604.56
430.292	595.56
430.514	503.56
430.736	478.56
430.958	476.56
431.18	472.56
431.402	455.56
431.624	443.56
431.846	447.56
432.068	442.56
432.29	459.56
432.512	470.56
432.734	466.56
432.956	463.56
433.178	477.56
433.4	462.56
433.622	440.56
433.844	462.56
434.066	445.56
434.287	463.56
434.509	474.56
434.731	476.56
434.953	474.56
435.175	493.56
435.397	524.56
435.618	525.56
435.84	562.56
436.062	640.56
436.284	736.56
436.505	617.56
436.727	562.56
436.949	495.56
437.17	498.56
437.392	512.56
437.614	500.56
437.835	535.56
438.057	641.56
438.278	762.56
438.5	732.56
438.721	814.56
438.943	780.56
439.165	612.56
439.386	551.56
439.608	536.56
439.829	558.56
440.05	588.56
440.272	616.56
440.493	605.56
440.715	539.56
440.936	526.56
441.158	500.56
441.379	509.56
441.6	515.56
441.822	512.56
442.043	574.56
442.264	660.56
442.486	702.56
442.707	604.56
442.928	531.56
443.149	572.56
443.371	574.56
443.592	619.56
443.813	719.56
444.034	776.56
444.255	620.56
444.476	562.56
444.698	536.56
444.919	519.56
445.14	642.56
445.361	583.56
445.582	581.56
445.803	630.56
446.024	766.56
446.245	763.56
446.466	719.56
446.687	605.56
446.908	562.56
447.129	507.56
447.35	500.56
447.571	479.56
447.792	498.56
448.013	485.56
448.234	513.56
448.455	583.56
448.675	675.56
448.896	790.56
449.117	654.56
449.338	644.56
449.559	735.56
449.779	826.56
450	664.56
450.221	558.56
450.442	494.56
450.662	488.56
450.883	477.56
451.104	511.56
451.324	491.56
451.545	462.56
451.766	457.56
451.986	434.56
452.207	432.56
452.428	426.56
452.648	442.56
452.869	447.56
453.089	431.56
453.31	457.56
453.53	430.56
453.751	438.56
453.971	434.56
454.192	465.56
454.412	444.56
454.633	442.56
454.853	462.56
455.073	438.56
455.294	474.56
455.514	527.56
455.734	510.56
455.955	442.56
456.175	415.56
456.395	421.56
456.616	399.56
456.836	411.56
457.056	414.56
457.276	388.56
457.497	399.56
457.717	420.56
457.937	407.56
458.157	395.56
458.377	436.56
458.598	470.56
458.818	504.56
459.038	603.56
459.258	608.56
459.478	523.56
459.698	482.56
459.918	442.56
460.138	422.56
460.358	474.56
460.578	442.56
460.798	454.56
461.018	460.56
461.238	435.56
461.458	448.56
461.678	444.56
461.898	450.56
462.118	441.56
462.338	450.56
462.558	443.56
462.777	446.56
462.997	481.56
463.217	486.56
463.437	474.56
463.657	445.56
463.876	466.56
464.096	468.56
464.316	480.56
464.536	484.56
464.755	477.56
464.975	474.56
465.195	539.56
465.414	602.56
465.634	550.56
465.854	496.56
466.073	498.56
466.293	466.56
466.512	435.56
466.732	432.56
466.951	462.56
467.171	455.56
467.391	459.56
467.61	439.56
467.829	468.56
468.049	461.56
468.268	454.56
468.488	451.56
468.707	440.56
468.927	434.56
469.146	428.56
469.365	443.56
469.585	430.56
469.804	441.56
470.023	443.56
470.243	448.56
470.462	447.56
470.681	462.56
470.901	465.56
471.12	461.56
471.339	462.56
471.558	444.56
471.777	445.56
471.997	447.56
472.216	449.56
472.435	515.56
472.654	495.56
472.873	483.56
473.092	448.56
473.311	458.56
473.53	458.56
473.749	462.56
473.968	514.56
474.187	608.56
474.406	622.56
474.625	528.56
474.844	454.56
475.063	450.56
475.282	435.56
475.501	468.56
475.72	486.56
475.939	453.56
476.158	458.56
476.377	457.56
476.596	455.56
476.814	467.56
477.033	468.56
477.252	472.56
477.471	477.56
477.69	483.56
477.908	479.56
478.127	478.56
478.346	478.56
478.564	484.56
478.783	488.56
479.002	486.56
479.22	509.56
479.439	502.56
479.658	522.56
479.876	528.56
480.095	548.56
480.313	581.56
480.532	574.56
480.751	563.56
480.969	568.56
481.188	674.56
481.406	746.56
481.624	605.56
481.843	549.56
482.061	548.56
482.28	552.56
482.498	522.56
482.717	508.56
482.935	531.56
483.153	522.56
483.372	532.56
483.59	520.56
483.808	520.56
484.027	528.56
484.245	524.56
484.463	527.56
484.681	564.56
484.9	528.56
485.118	559.56
485.336	546.56
485.554	536.56
485.772	553.56
485.99	551.56
486.209	548.56
486.427	573.56
486.645	583.56
486.863	592.56
487.081	579.56
487.299	575.56
487.517	556.56
487.735	564.56
487.953	546.56
488.171	573.56
488.389	569.56
488.607	568.56
488.825	567.56
489.043	558.56
489.261	589.56
489.479	580.56
489.696	563.56
489.914	600.56
490.132	583.56
490.35	595.56
490.568	585.56
490.786	594.56
491.003	632.56
491.221	616.56
491.439	652.56
491.657	650.56
491.874	638.56
492.092	652.56
492.31	684.56
492.527	655.56
492.745	676.56
492.963	670.56
493.18	677.56
493.398	685.56
493.615	677.56
493.833	672.56
494.05	676.56
494.268	670.56
494.485	694.56
494.703	664.56
494.92	683.56
495.138	698.56
495.355	663.56
495.573	690.56
495.79	704.56
496.008	687.56
496.225	682.56
496.442	668.56
496.66	692.56
496.877	685.56
497.094	682.56
497.312	692.56
497.529	682.56
497.746	678.56
497.963	715.56
498.181	732.56
498.398	741.56
498.615	751.56
498.832	764.56
499.049	752.56
499.267	746.56
499.484	778.56
499.701	767.56
499.918	807.56
500.135	818.56
500.352	853.56
500.569	863.56
500.786	856.56
501.003	867.56
501.22	862.56
501.437	860.56
501.654	824.56
501.871	840.56
