Data from 1989.PennyLincolnUp.Lamp.En5.5.200Scan.071819.P2_HRD10591_17-24-48-974.txt Node
Date: Thu Jul 18 17:24:48 EDT 2019
User: cochatt
Spectrometer: HR+D1059
Trigger mode: 1
Integration Time (sec): 1.000000E-1
Scans to average: 1
Electric dark correction enabled: true
Nonlinearity correction enabled: false
Boxcar width: 0
XAxis mode: Wavelengths
Number of Pixels in Spectrum: 2048
>>>>>Begin Spectral Data<<<<<
223.165	-22.44
223.4	-22.44
223.635	-22.44
223.869	-12.44
224.104	-19.44
224.338	-22.44
224.573	-8.44
224.808	-7.44
225.042	11.56
225.277	-8.44
225.511	-9.44
225.746	0.56
225.98	6.56
226.215	22.56
226.449	12.56
226.683	21.56
226.918	11.56
227.152	23.56
227.387	27.56
227.621	39.56
227.856	46.56
228.09	57.56
228.324	44.56
228.559	63.56
228.793	67.56
229.027	102.56
229.262	115.56
229.496	112.56
229.73	141.56
229.964	152.56
230.199	129.56
230.433	124.56
230.667	122.56
230.901	118.56
231.136	108.56
231.37	119.56
231.604	109.56
231.838	115.56
232.072	128.56
232.306	124.56
232.541	91.56
232.775	113.56
233.009	112.56
233.243	110.56
233.477	122.56
233.711	103.56
233.945	123.56
234.179	114.56
234.413	117.56
234.647	124.56
234.881	118.56
235.115	127.56
235.349	100.56
235.583	128.56
235.817	123.56
236.051	113.56
236.285	128.56
236.519	127.56
236.753	131.56
236.987	154.56
237.221	193.56
237.455	253.56
237.689	208.56
237.922	139.56
238.156	129.56
238.39	129.56
238.624	126.56
238.858	141.56
239.091	124.56
239.325	145.56
239.559	138.56
239.793	147.56
240.027	123.56
240.26	153.56
240.494	157.56
240.728	165.56
240.961	156.56
241.195	161.56
241.429	142.56
241.662	142.56
241.896	143.56
242.13	146.56
242.363	135.56
242.597	135.56
242.83	154.56
243.064	139.56
243.298	138.56
243.531	153.56
243.765	136.56
243.998	141.56
244.232	139.56
244.465	148.56
244.699	144.56
244.932	153.56
245.166	146.56
245.399	139.56
245.633	152.56
245.866	154.56
246.099	141.56
246.333	153.56
246.566	154.56
246.8	181.56
247.033	160.56
247.266	161.56
247.5	179.56
247.733	172.56
247.966	207.56
248.2	196.56
248.433	167.56
248.666	194.56
248.899	199.56
249.133	194.56
249.366	236.56
249.599	217.56
249.832	211.56
250.066	215.56
250.299	188.56
250.532	203.56
250.765	226.56
250.998	223.56
251.231	248.56
251.465	232.56
251.698	221.56
251.931	221.56
252.164	205.56
252.397	204.56
252.63	220.56
252.863	235.56
253.096	229.56
253.329	253.56
253.562	265.56
253.795	216.56
254.028	242.56
254.261	241.56
254.494	239.56
254.727	268.56
254.96	307.56
255.193	294.56
255.426	279.56
255.659	267.56
255.892	251.56
256.124	236.56
256.357	230.56
256.59	232.56
256.823	242.56
257.056	232.56
257.289	224.56
257.521	244.56
257.754	221.56
257.987	221.56
258.22	223.56
258.452	232.56
258.685	216.56
258.918	231.56
259.151	232.56
259.383	255.56
259.616	225.56
259.849	234.56
260.081	264.56
260.314	298.56
260.547	274.56
260.779	274.56
261.012	267.56
261.244	266.56
261.477	232.56
261.71	243.56
261.942	259.56
262.175	272.56
262.407	257.56
262.64	219.56
262.872	227.56
263.105	228.56
263.337	245.56
263.57	231.56
263.802	225.56
264.035	229.56
264.267	234.56
264.499	232.56
264.732	230.56
264.964	232.56
265.197	224.56
265.429	223.56
265.661	212.56
265.894	207.56
266.126	234.56
266.358	232.56
266.591	238.56
266.823	233.56
267.055	246.56
267.287	241.56
267.52	248.56
267.752	251.56
267.984	245.56
268.216	256.56
268.448	241.56
268.681	247.56
268.913	278.56
269.145	280.56
269.377	303.56
269.609	311.56
269.841	298.56
270.073	315.56
270.306	329.56
270.538	344.56
270.77	359.56
271.002	330.56
271.234	337.56
271.466	344.56
271.698	350.56
271.93	346.56
272.162	351.56
272.394	358.56
272.626	334.56
272.858	319.56
273.09	314.56
273.322	296.56
273.553	293.56
273.785	275.56
274.017	267.56
274.249	287.56
274.481	280.56
274.713	280.56
274.945	294.56
275.176	276.56
275.408	296.56
275.64	285.56
275.872	285.56
276.104	287.56
276.335	275.56
276.567	276.56
276.799	308.56
277.031	345.56
277.262	352.56
277.494	362.56
277.726	324.56
277.957	319.56
278.189	316.56
278.421	304.56
278.652	280.56
278.884	291.56
279.115	279.56
279.347	291.56
279.579	287.56
279.81	282.56
280.042	287.56
280.273	295.56
280.505	290.56
280.736	283.56
280.968	286.56
281.199	283.56
281.431	280.56
281.662	297.56
281.894	312.56
282.125	295.56
282.356	292.56
282.588	338.56
282.819	337.56
283.051	324.56
283.282	290.56
283.513	303.56
283.745	293.56
283.976	315.56
284.207	305.56
284.439	289.56
284.67	287.56
284.901	289.56
285.132	293.56
285.364	282.56
285.595	281.56
285.826	288.56
286.057	296.56
286.288	294.56
286.52	291.56
286.751	306.56
286.982	287.56
287.213	295.56
287.444	289.56
287.675	319.56
287.906	315.56
288.138	330.56
288.369	306.56
288.6	325.56
288.831	313.56
289.062	315.56
289.293	333.56
289.524	297.56
289.755	288.56
289.986	288.56
290.217	294.56
290.448	317.56
290.679	315.56
290.91	310.56
291.141	316.56
291.371	291.56
291.602	321.56
291.833	304.56
292.064	303.56
292.295	305.56
292.526	307.56
292.757	299.56
292.987	298.56
293.218	297.56
293.449	307.56
293.68	320.56
293.91	312.56
294.141	319.56
294.372	297.56
294.603	299.56
294.833	300.56
295.064	298.56
295.295	310.56
295.525	314.56
295.756	308.56
295.987	323.56
296.217	341.56
296.448	350.56
296.679	338.56
296.909	303.56
297.14	323.56
297.37	315.56
297.601	322.56
297.831	316.56
298.062	317.56
298.292	315.56
298.523	322.56
298.753	322.56
298.984	309.56
299.214	313.56
299.445	317.56
299.675	330.56
299.905	311.56
300.136	329.56
300.366	323.56
300.597	323.56
300.827	318.56
301.057	342.56
301.288	337.56
301.518	349.56
301.748	330.56
301.979	351.56
302.209	335.56
302.439	343.56
302.669	355.56
302.9	363.56
303.13	329.56
303.36	351.56
303.59	361.56
303.82	360.56
304.051	358.56
304.281	344.56
304.511	340.56
304.741	339.56
304.971	358.56
305.201	339.56
305.431	342.56
305.661	334.56
305.891	333.56
306.121	345.56
306.352	362.56
306.582	362.56
306.812	345.56
307.042	334.56
307.272	326.56
307.502	343.56
307.731	357.56
307.961	340.56
308.191	359.56
308.421	334.56
308.651	354.56
308.881	361.56
309.111	340.56
309.341	389.56
309.571	371.56
309.8	404.56
310.03	394.56
310.26	389.56
310.49	400.56
310.72	421.56
310.949	413.56
311.179	409.56
311.409	407.56
311.639	405.56
311.868	406.56
312.098	392.56
312.328	419.56
312.557	454.56
312.787	431.56
313.017	441.56
313.246	412.56
313.476	378.56
313.706	401.56
313.935	415.56
314.165	416.56
314.394	435.56
314.624	425.56
314.853	421.56
315.083	423.56
315.312	398.56
315.542	398.56
315.771	386.56
316.001	403.56
316.23	387.56
316.46	406.56
316.689	402.56
316.919	416.56
317.148	409.56
317.377	415.56
317.607	439.56
317.836	391.56
318.065	396.56
318.295	393.56
318.524	395.56
318.753	375.56
318.983	411.56
319.212	419.56
319.441	429.56
319.67	425.56
319.9	423.56
320.129	399.56
320.358	388.56
320.587	407.56
320.816	416.56
321.046	421.56
321.275	434.56
321.504	425.56
321.733	417.56
321.962	431.56
322.191	459.56
322.42	472.56
322.649	487.56
322.878	498.56
323.108	483.56
323.337	525.56
323.566	543.56
323.795	596.56
324.024	653.56
324.253	820.56
324.482	1165.56
324.71	1741.56
324.939	2583.56
325.168	2189.56
325.397	1152.56
325.626	760.56
325.855	611.56
326.084	557.56
326.313	546.56
326.542	552.56
326.77	606.56
326.999	721.56
327.228	1024.56
327.457	1531.56
327.686	1866.56
327.914	1263.56
328.143	802.56
328.372	690.56
328.6	653.56
328.829	639.56
329.058	640.56
329.287	637.56
329.515	607.56
329.744	555.56
329.972	542.56
330.201	540.56
330.43	570.56
330.658	651.56
330.887	648.56
331.115	665.56
331.344	561.56
331.572	514.56
331.801	533.56
332.03	499.56
332.258	526.56
332.486	482.56
332.715	474.56
332.943	464.56
333.172	480.56
333.4	477.56
333.629	481.56
333.857	508.56
334.085	479.56
334.314	497.56
334.542	512.56
334.771	524.56
334.999	495.56
335.227	487.56
335.455	477.56
335.684	453.56
335.912	461.56
336.14	458.56
336.369	448.56
336.597	466.56
336.825	484.56
337.053	455.56
337.281	461.56
337.51	439.56
337.738	436.56
337.966	462.56
338.194	466.56
338.422	449.56
338.65	459.56
338.878	426.56
339.106	438.56
339.334	443.56
339.562	457.56
339.79	462.56
340.018	430.56
340.246	448.56
340.474	445.56
340.702	445.56
340.93	449.56
341.158	443.56
341.386	451.56
341.614	439.56
341.842	452.56
342.07	449.56
342.298	455.56
342.526	423.56
342.754	439.56
342.981	442.56
343.209	424.56
343.437	416.56
343.665	425.56
343.893	415.56
344.12	464.56
344.348	434.56
344.576	469.56
344.804	464.56
345.031	442.56
345.259	483.56
345.487	460.56
345.714	435.56
345.942	416.56
346.17	436.56
346.397	433.56
346.625	432.56
346.853	426.56
347.08	408.56
347.308	448.56
347.535	451.56
347.763	484.56
347.99	453.56
348.218	439.56
348.445	458.56
348.673	456.56
348.9	424.56
349.128	422.56
349.355	425.56
349.583	416.56
349.81	422.56
350.037	403.56
350.265	415.56
350.492	408.56
350.72	424.56
350.947	429.56
351.174	452.56
351.402	424.56
351.629	420.56
351.856	439.56
352.083	437.56
352.311	431.56
352.538	442.56
352.765	457.56
352.992	437.56
353.22	444.56
353.447	407.56
353.674	411.56
353.901	410.56
354.128	388.56
354.355	417.56
354.583	409.56
354.81	403.56
355.037	396.56
355.264	399.56
355.491	387.56
355.718	403.56
355.945	371.56
356.172	383.56
356.399	394.56
356.626	383.56
356.853	380.56
357.08	387.56
357.307	400.56
357.534	384.56
357.761	410.56
357.988	384.56
358.215	381.56
358.441	397.56
358.668	383.56
358.895	418.56
359.122	405.56
359.349	399.56
359.576	408.56
359.802	455.56
360.029	457.56
360.256	469.56
360.483	445.56
360.709	434.56
360.936	427.56
361.163	427.56
361.39	415.56
361.616	417.56
361.843	417.56
362.07	409.56
362.296	439.56
362.523	407.56
362.749	441.56
362.976	407.56
363.203	412.56
363.429	379.56
363.656	390.56
363.882	397.56
364.109	398.56
364.335	395.56
364.562	401.56
364.788	397.56
365.015	392.56
365.241	392.56
365.468	395.56
365.694	394.56
365.92	412.56
366.147	410.56
366.373	413.56
366.599	395.56
366.826	403.56
367.052	392.56
367.278	400.56
367.505	395.56
367.731	407.56
367.957	384.56
368.184	391.56
368.41	393.56
368.636	386.56
368.862	420.56
369.089	417.56
369.315	378.56
369.541	395.56
369.767	393.56
369.993	389.56
370.219	393.56
370.445	389.56
370.672	384.56
370.898	387.56
371.124	376.56
371.35	383.56
371.576	379.56
371.802	382.56
372.028	378.56
372.254	389.56
372.48	371.56
372.706	393.56
372.932	382.56
373.158	385.56
373.384	385.56
373.61	362.56
373.835	371.56
374.061	401.56
374.287	387.56
374.513	386.56
374.739	385.56
374.965	400.56
375.191	414.56
375.416	395.56
375.642	391.56
375.868	411.56
376.094	402.56
376.319	373.56
376.545	390.56
376.771	386.56
376.997	378.56
377.222	371.56
377.448	377.56
377.674	381.56
377.899	372.56
378.125	388.56
378.35	385.56
378.576	377.56
378.802	372.56
379.027	370.56
379.253	384.56
379.478	368.56
379.704	385.56
379.929	395.56
380.155	381.56
380.38	383.56
380.606	380.56
380.831	393.56
381.057	397.56
381.282	385.56
381.507	375.56
381.733	393.56
381.958	381.56
382.184	386.56
382.409	383.56
382.634	388.56
382.86	389.56
383.085	401.56
383.31	385.56
383.535	386.56
383.761	399.56
383.986	383.56
384.211	407.56
384.436	409.56
384.662	387.56
384.887	390.56
385.112	392.56
385.337	403.56
385.562	418.56
385.787	409.56
386.013	435.56
386.238	423.56
386.463	401.56
386.688	407.56
386.913	405.56
387.138	407.56
387.363	403.56
387.588	390.56
387.813	403.56
388.038	405.56
388.263	381.56
388.488	411.56
388.713	411.56
388.938	410.56
389.163	404.56
389.387	412.56
389.612	406.56
389.837	407.56
390.062	408.56
390.287	423.56
390.512	393.56
390.736	407.56
390.961	401.56
391.186	400.56
391.411	407.56
391.636	402.56
391.86	404.56
392.085	412.56
392.31	417.56
392.534	408.56
392.759	410.56
392.984	439.56
393.208	391.56
393.433	401.56
393.658	408.56
393.882	387.56
394.107	398.56
394.331	391.56
394.556	391.56
394.78	404.56
395.005	397.56
395.229	390.56
395.454	417.56
395.678	418.56
395.903	417.56
396.127	447.56
396.352	453.56
396.576	428.56
396.801	426.56
397.025	423.56
397.249	405.56
397.474	417.56
397.698	429.56
397.922	432.56
398.147	456.56
398.371	466.56
398.595	452.56
398.82	429.56
399.044	472.56
399.268	467.56
399.492	506.56
399.717	533.56
399.941	526.56
400.165	546.56
400.389	562.56
400.613	533.56
400.837	505.56
401.062	465.56
401.286	455.56
401.51	471.56
401.734	465.56
401.958	451.56
402.182	467.56
402.406	492.56
402.63	476.56
402.854	452.56
403.078	453.56
403.302	474.56
403.526	467.56
403.75	460.56
403.974	488.56
404.198	443.56
404.422	491.56
404.645	473.56
404.869	489.56
405.093	480.56
405.317	541.56
405.541	567.56
405.765	520.56
405.988	485.56
406.212	519.56
406.436	534.56
406.66	549.56
406.883	534.56
407.107	556.56
407.331	570.56
407.555	636.56
407.778	633.56
408.002	604.56
408.226	521.56
408.449	518.56
408.673	516.56
408.896	530.56
409.12	604.56
409.344	549.56
409.567	500.56
409.791	476.56
410.014	473.56
410.238	463.56
410.461	486.56
410.685	481.56
410.908	483.56
411.132	522.56
411.355	556.56
411.578	544.56
411.802	471.56
412.025	473.56
412.249	459.56
412.472	478.56
412.695	501.56
412.919	526.56
413.142	472.56
413.365	440.56
413.589	447.56
413.812	455.56
414.035	441.56
414.258	437.56
414.482	445.56
414.705	440.56
414.928	452.56
415.151	466.56
415.374	448.56
415.597	461.56
415.821	434.56
416.044	431.56
416.267	438.56
416.49	437.56
416.713	456.56
416.936	451.56
417.159	439.56
417.382	457.56
417.605	466.56
417.828	455.56
418.051	471.56
418.274	465.56
418.497	444.56
418.72	456.56
418.943	436.56
419.166	465.56
419.389	489.56
419.611	477.56
419.834	469.56
420.057	471.56
420.28	461.56
420.503	460.56
420.726	470.56
420.948	486.56
421.171	512.56
421.394	537.56
421.617	498.56
421.839	460.56
422.062	475.56
422.285	479.56
422.507	513.56
422.73	611.56
422.953	588.56
423.175	537.56
423.398	511.56
423.621	470.56
423.843	510.56
424.066	514.56
424.288	513.56
424.511	548.56
424.733	604.56
424.956	647.56
425.178	663.56
425.401	627.56
425.623	646.56
425.846	566.56
426.068	552.56
426.291	535.56
426.513	525.56
426.735	509.56
426.958	556.56
427.18	658.56
427.402	775.56
427.625	857.56
427.847	753.56
428.069	631.56
428.292	562.56
428.514	521.56
428.736	504.56
428.958	473.56
429.181	477.56
429.403	482.56
429.625	481.56
429.847	518.56
430.069	596.56
430.292	603.56
430.514	507.56
430.736	483.56
430.958	467.56
431.18	460.56
431.402	447.56
431.624	457.56
431.846	448.56
432.068	447.56
432.29	461.56
432.512	455.56
432.734	451.56
432.956	440.56
433.178	449.56
433.4	472.56
433.622	457.56
433.844	444.56
434.066	419.56
434.287	420.56
434.509	439.56
434.731	449.56
434.953	472.56
435.175	485.56
435.397	518.56
435.618	519.56
435.84	564.56
436.062	647.56
436.284	710.56
436.505	596.56
436.727	541.56
436.949	513.56
437.17	482.56
437.392	487.56
437.614	492.56
437.835	515.56
438.057	609.56
438.278	718.56
438.5	721.56
438.721	812.56
438.943	749.56
439.165	587.56
439.386	561.56
439.608	542.56
439.829	535.56
440.05	563.56
440.272	622.56
440.493	584.56
440.715	520.56
440.936	507.56
441.158	482.56
441.379	514.56
441.6	515.56
441.822	510.56
442.043	584.56
442.264	643.56
442.486	681.56
442.707	579.56
442.928	523.56
443.149	539.56
443.371	580.56
443.592	609.56
443.813	713.56
444.034	759.56
444.255	628.56
444.476	547.56
444.698	537.56
444.919	510.56
445.14	608.56
445.361	575.56
445.582	558.56
445.803	637.56
446.024	739.56
446.245	760.56
446.466	684.56
446.687	584.56
446.908	510.56
447.129	505.56
447.35	479.56
447.571	496.56
447.792	473.56
448.013	482.56
448.234	521.56
448.455	579.56
448.675	677.56
448.896	785.56
449.117	650.56
449.338	630.56
449.559	733.56
449.779	820.56
450	682.56
450.221	567.56
450.442	511.56
450.662	472.56
450.883	474.56
451.104	512.56
451.324	489.56
451.545	460.56
451.766	447.56
451.986	423.56
452.207	439.56
452.428	423.56
452.648	433.56
452.869	424.56
453.089	439.56
453.31	463.56
453.53	441.56
453.751	451.56
453.971	439.56
454.192	448.56
454.412	463.56
454.633	431.56
454.853	409.56
455.073	435.56
455.294	472.56
455.514	519.56
455.734	511.56
455.955	433.56
456.175	409.56
456.395	396.56
456.616	392.56
456.836	373.56
457.056	390.56
457.276	369.56
457.497	392.56
457.717	381.56
457.937	370.56
458.157	396.56
458.377	435.56
458.598	437.56
458.818	505.56
459.038	586.56
459.258	607.56
459.478	470.56
459.698	441.56
459.918	448.56
460.138	432.56
460.358	456.56
460.578	428.56
460.798	443.56
461.018	425.56
461.238	447.56
461.458	434.56
461.678	437.56
461.898	431.56
462.118	437.56
462.338	442.56
462.558	452.56
462.777	436.56
462.997	474.56
463.217	456.56
463.437	462.56
463.657	475.56
463.876	456.56
464.096	457.56
464.316	469.56
464.536	483.56
464.755	470.56
464.975	476.56
465.195	540.56
465.414	590.56
465.634	539.56
465.854	505.56
466.073	459.56
466.293	440.56
466.512	449.56
466.732	437.56
466.951	410.56
467.171	421.56
467.391	419.56
467.61	444.56
467.829	441.56
468.049	427.56
468.268	440.56
468.488	403.56
468.707	430.56
468.927	414.56
469.146	402.56
469.365	400.56
469.585	407.56
469.804	414.56
470.023	461.56
470.243	435.56
470.462	435.56
470.681	450.56
470.901	435.56
471.12	431.56
471.339	441.56
471.558	452.56
471.777	447.56
471.997	412.56
472.216	428.56
472.435	433.56
472.654	427.56
472.873	439.56
473.092	453.56
473.311	439.56
473.53	418.56
473.749	449.56
473.968	474.56
474.187	572.56
474.406	633.56
474.625	517.56
474.844	481.56
475.063	447.56
475.282	436.56
475.501	432.56
475.72	439.56
475.939	455.56
476.158	442.56
476.377	471.56
476.596	428.56
476.814	471.56
477.033	466.56
477.252	471.56
477.471	467.56
477.69	456.56
477.908	472.56
478.127	472.56
478.346	459.56
478.564	486.56
478.783	479.56
479.002	485.56
479.22	486.56
479.439	509.56
479.658	514.56
479.876	525.56
480.095	519.56
480.313	563.56
480.532	549.56
480.751	533.56
480.969	540.56
481.188	566.56
481.406	573.56
481.624	544.56
481.843	525.56
482.061	522.56
482.28	497.56
482.498	497.56
482.717	484.56
482.935	495.56
483.153	503.56
483.372	496.56
483.59	517.56
483.808	526.56
484.027	504.56
484.245	529.56
484.463	513.56
484.681	522.56
484.9	531.56
485.118	520.56
485.336	524.56
485.554	536.56
485.772	525.56
485.99	516.56
486.209	533.56
486.427	523.56
486.645	551.56
486.863	566.56
487.081	569.56
487.299	564.56
487.517	571.56
487.735	531.56
487.953	540.56
488.171	538.56
488.389	546.56
488.607	551.56
488.825	518.56
489.043	530.56
489.261	561.56
489.479	546.56
489.696	553.56
489.914	565.56
490.132	567.56
490.35	571.56
490.568	563.56
490.786	580.56
491.003	595.56
491.221	614.56
491.439	598.56
491.657	611.56
491.874	635.56
492.092	633.56
492.31	624.56
492.527	617.56
492.745	636.56
492.963	642.56
493.18	617.56
493.398	635.56
493.615	658.56
493.833	645.56
494.05	654.56
494.268	643.56
494.485	650.56
494.703	644.56
494.92	662.56
495.138	664.56
495.355	639.56
495.573	659.56
495.79	660.56
496.008	666.56
496.225	629.56
496.442	651.56
496.66	652.56
496.877	635.56
497.094	660.56
497.312	673.56
497.529	675.56
497.746	667.56
497.963	656.56
498.181	719.56
498.398	711.56
498.615	738.56
498.832	720.56
499.049	725.56
499.267	740.56
499.484	748.56
499.701	773.56
499.918	775.56
500.135	795.56
500.352	841.56
500.569	861.56
500.786	848.56
501.003	841.56
501.22	831.56
501.437	802.56
501.654	813.56
501.871	797.56
