Data from 1989.PennyLincolnUp.Lamp.En5.5.200Scan.071819.P2_HRD10591_17-23-11-973.txt Node
Date: Thu Jul 18 17:23:11 EDT 2019
User: cochatt
Spectrometer: HR+D1059
Trigger mode: 1
Integration Time (sec): 1.000000E-1
Scans to average: 1
Electric dark correction enabled: true
Nonlinearity correction enabled: false
Boxcar width: 0
XAxis mode: Wavelengths
Number of Pixels in Spectrum: 2048
>>>>>Begin Spectral Data<<<<<
223.165	-13.44
223.4	-13.44
223.635	-13.44
223.869	-25.44
224.104	-27.44
224.338	-19.44
224.573	-18.44
224.808	-10.44
225.042	-1.44
225.277	-18.44
225.511	3.56
225.746	7.56
225.98	7.56
226.215	19.56
226.449	22.56
226.683	27.56
226.918	8.56
227.152	37.56
227.387	33.56
227.621	39.56
227.856	58.56
228.09	39.56
228.324	62.56
228.559	54.56
228.793	71.56
229.027	90.56
229.262	93.56
229.496	86.56
229.73	109.56
229.964	110.56
230.199	110.56
230.433	97.56
230.667	104.56
230.901	95.56
231.136	110.56
231.37	98.56
231.604	95.56
231.838	87.56
232.072	102.56
232.306	102.56
232.541	98.56
232.775	104.56
233.009	96.56
233.243	110.56
233.477	91.56
233.711	102.56
233.945	100.56
234.179	106.56
234.413	101.56
234.647	103.56
234.881	112.56
235.115	83.56
235.349	108.56
235.583	109.56
235.817	109.56
236.051	107.56
236.285	111.56
236.519	113.56
236.753	115.56
236.987	115.56
237.221	127.56
237.455	161.56
237.689	123.56
237.922	105.56
238.156	124.56
238.39	110.56
238.624	113.56
238.858	93.56
239.091	96.56
239.325	86.56
239.559	100.56
239.793	109.56
240.027	107.56
240.26	108.56
240.494	126.56
240.728	131.56
240.961	125.56
241.195	122.56
241.429	108.56
241.662	115.56
241.896	117.56
242.13	110.56
242.363	121.56
242.597	111.56
242.83	108.56
243.064	109.56
243.298	116.56
243.531	119.56
243.765	131.56
243.998	124.56
244.232	115.56
244.465	130.56
244.699	110.56
244.932	126.56
245.166	115.56
245.399	124.56
245.633	117.56
245.866	130.56
246.099	134.56
246.333	130.56
246.566	135.56
246.8	121.56
247.033	140.56
247.266	133.56
247.5	137.56
247.733	132.56
247.966	132.56
248.2	144.56
248.433	158.56
248.666	149.56
248.899	155.56
249.133	156.56
249.366	156.56
249.599	151.56
249.832	132.56
250.066	142.56
250.299	148.56
250.532	144.56
250.765	149.56
250.998	162.56
251.231	179.56
251.465	164.56
251.698	155.56
251.931	151.56
252.164	163.56
252.397	151.56
252.63	161.56
252.863	167.56
253.096	167.56
253.329	187.56
253.562	179.56
253.795	172.56
254.028	193.56
254.261	169.56
254.494	176.56
254.727	196.56
254.96	198.56
255.193	204.56
255.426	192.56
255.659	164.56
255.892	181.56
256.124	174.56
256.357	178.56
256.59	183.56
256.823	158.56
257.056	164.56
257.289	162.56
257.521	174.56
257.754	173.56
257.987	161.56
258.22	185.56
258.452	171.56
258.685	159.56
258.918	169.56
259.151	165.56
259.383	182.56
259.616	171.56
259.849	174.56
260.081	191.56
260.314	193.56
260.547	200.56
260.779	186.56
261.012	197.56
261.244	188.56
261.477	184.56
261.71	172.56
261.942	183.56
262.175	177.56
262.407	190.56
262.64	186.56
262.872	192.56
263.105	172.56
263.337	161.56
263.57	165.56
263.802	172.56
264.035	169.56
264.267	180.56
264.499	171.56
264.732	180.56
264.964	193.56
265.197	181.56
265.429	159.56
265.661	174.56
265.894	180.56
266.126	184.56
266.358	183.56
266.591	183.56
266.823	188.56
267.055	186.56
267.287	190.56
267.52	186.56
267.752	202.56
267.984	189.56
268.216	195.56
268.448	199.56
268.681	185.56
268.913	196.56
269.145	211.56
269.377	222.56
269.609	195.56
269.841	210.56
270.073	199.56
270.306	217.56
270.538	242.56
270.77	224.56
271.002	230.56
271.234	216.56
271.466	223.56
271.698	221.56
271.93	232.56
272.162	232.56
272.394	225.56
272.626	227.56
272.858	219.56
273.09	227.56
273.322	222.56
273.553	207.56
273.785	225.56
274.017	203.56
274.249	224.56
274.481	230.56
274.713	209.56
274.945	214.56
275.176	220.56
275.408	212.56
275.64	209.56
275.872	207.56
276.104	205.56
276.335	213.56
276.567	206.56
276.799	227.56
277.031	218.56
277.262	235.56
277.494	248.56
277.726	231.56
277.957	227.56
278.189	218.56
278.421	202.56
278.652	217.56
278.884	220.56
279.115	208.56
279.347	206.56
279.579	215.56
279.81	237.56
280.042	229.56
280.273	250.56
280.505	228.56
280.736	216.56
280.968	202.56
281.199	232.56
281.431	235.56
281.662	218.56
281.894	212.56
282.125	217.56
282.356	222.56
282.588	234.56
282.819	227.56
283.051	241.56
283.282	213.56
283.513	225.56
283.745	211.56
283.976	214.56
284.207	223.56
284.439	229.56
284.67	215.56
284.901	232.56
285.132	238.56
285.364	235.56
285.595	225.56
285.826	237.56
286.057	221.56
286.288	241.56
286.52	236.56
286.751	221.56
286.982	232.56
287.213	236.56
287.444	231.56
287.675	225.56
287.906	242.56
288.138	245.56
288.369	225.56
288.6	223.56
288.831	243.56
289.062	237.56
289.293	236.56
289.524	225.56
289.755	242.56
289.986	242.56
290.217	233.56
290.448	235.56
290.679	238.56
290.91	233.56
291.141	236.56
291.371	236.56
291.602	233.56
291.833	254.56
292.064	247.56
292.295	245.56
292.526	250.56
292.757	247.56
292.987	238.56
293.218	232.56
293.449	220.56
293.68	235.56
293.91	249.56
294.141	234.56
294.372	247.56
294.603	224.56
294.833	242.56
295.064	229.56
295.295	245.56
295.525	235.56
295.756	250.56
295.987	245.56
296.217	261.56
296.448	284.56
296.679	246.56
296.909	242.56
297.14	241.56
297.37	234.56
297.601	247.56
297.831	235.56
298.062	258.56
298.292	241.56
298.523	264.56
298.753	230.56
298.984	243.56
299.214	228.56
299.445	247.56
299.675	244.56
299.905	258.56
300.136	263.56
300.366	244.56
300.597	264.56
300.827	250.56
301.057	249.56
301.288	254.56
301.518	261.56
301.748	251.56
301.979	282.56
302.209	268.56
302.439	257.56
302.669	260.56
302.9	267.56
303.13	285.56
303.36	291.56
303.59	269.56
303.82	265.56
304.051	275.56
304.281	279.56
304.511	264.56
304.741	268.56
304.971	269.56
305.201	269.56
305.431	270.56
305.661	265.56
305.891	246.56
306.121	267.56
306.352	291.56
306.582	270.56
306.812	277.56
307.042	284.56
307.272	261.56
307.502	275.56
307.731	263.56
307.961	269.56
308.191	255.56
308.421	281.56
308.651	271.56
308.881	263.56
309.111	273.56
309.341	273.56
309.571	264.56
309.8	284.56
310.03	283.56
310.26	298.56
310.49	289.56
310.72	293.56
310.949	315.56
311.179	300.56
311.409	297.56
311.639	298.56
311.868	313.56
312.098	307.56
312.328	303.56
312.557	323.56
312.787	308.56
313.017	329.56
313.246	306.56
313.476	299.56
313.706	298.56
313.935	281.56
314.165	321.56
314.394	315.56
314.624	307.56
314.853	307.56
315.083	301.56
315.312	305.56
315.542	309.56
315.771	317.56
316.001	289.56
316.23	309.56
316.46	305.56
316.689	292.56
316.919	300.56
317.148	313.56
317.377	315.56
317.607	296.56
317.836	315.56
318.065	297.56
318.295	306.56
318.524	306.56
318.753	300.56
318.983	309.56
319.212	298.56
319.441	298.56
319.67	323.56
319.9	305.56
320.129	300.56
320.358	281.56
320.587	317.56
320.816	301.56
321.046	316.56
321.275	325.56
321.504	321.56
321.733	313.56
321.962	316.56
322.191	314.56
322.42	345.56
322.649	345.56
322.878	342.56
323.108	358.56
323.337	360.56
323.566	365.56
323.795	374.56
324.024	425.56
324.253	509.56
324.482	718.56
324.71	1068.56
324.939	1440.56
325.168	1189.56
325.397	626.56
325.626	454.56
325.855	365.56
326.084	379.56
326.313	375.56
326.542	357.56
326.77	401.56
326.999	476.56
327.228	654.56
327.457	941.56
327.686	1038.56
327.914	698.56
328.143	471.56
328.372	420.56
328.6	393.56
328.829	403.56
329.058	412.56
329.287	399.56
329.515	392.56
329.744	363.56
329.972	377.56
330.201	374.56
330.43	382.56
330.658	396.56
330.887	431.56
331.115	405.56
331.344	387.56
331.572	372.56
331.801	371.56
332.03	355.56
332.258	357.56
332.486	353.56
332.715	353.56
332.943	345.56
333.172	341.56
333.4	362.56
333.629	344.56
333.857	343.56
334.085	336.56
334.314	341.56
334.542	361.56
334.771	355.56
334.999	373.56
335.227	354.56
335.455	365.56
335.684	356.56
335.912	350.56
336.14	333.56
336.369	354.56
336.597	349.56
336.825	357.56
337.053	342.56
337.281	339.56
337.51	324.56
337.738	333.56
337.966	341.56
338.194	349.56
338.422	331.56
338.65	335.56
338.878	328.56
339.106	326.56
339.334	325.56
339.562	347.56
339.79	316.56
340.018	333.56
340.246	334.56
340.474	326.56
340.702	341.56
340.93	332.56
341.158	335.56
341.386	336.56
341.614	345.56
341.842	327.56
342.07	332.56
342.298	319.56
342.526	333.56
342.754	325.56
342.981	339.56
343.209	332.56
343.437	319.56
343.665	321.56
343.893	332.56
344.12	351.56
344.348	347.56
344.576	329.56
344.804	350.56
345.031	341.56
345.259	346.56
345.487	351.56
345.714	325.56
345.942	328.56
346.17	312.56
346.397	331.56
346.625	327.56
346.853	316.56
347.08	323.56
347.308	329.56
347.535	324.56
347.763	314.56
347.99	338.56
348.218	329.56
348.445	337.56
348.673	317.56
348.9	307.56
349.128	305.56
349.355	318.56
349.583	295.56
349.81	306.56
350.037	323.56
350.265	325.56
350.492	304.56
350.72	308.56
350.947	323.56
351.174	326.56
351.402	329.56
351.629	315.56
351.856	325.56
352.083	331.56
352.311	347.56
352.538	319.56
352.765	328.56
352.992	325.56
353.22	309.56
353.447	289.56
353.674	322.56
353.901	283.56
354.128	300.56
354.355	309.56
354.583	291.56
354.81	298.56
355.037	303.56
355.264	286.56
355.491	310.56
355.718	307.56
355.945	311.56
356.172	281.56
356.399	300.56
356.626	299.56
356.853	303.56
357.08	293.56
357.307	305.56
357.534	287.56
357.761	312.56
357.988	314.56
358.215	307.56
358.441	305.56
358.668	300.56
358.895	294.56
359.122	305.56
359.349	320.56
359.576	317.56
359.802	327.56
360.029	329.56
360.256	328.56
360.483	329.56
360.709	334.56
360.936	318.56
361.163	311.56
361.39	321.56
361.616	311.56
361.843	319.56
362.07	308.56
362.296	314.56
362.523	318.56
362.749	313.56
362.976	297.56
363.203	292.56
363.429	300.56
363.656	291.56
363.882	284.56
364.109	282.56
364.335	290.56
364.562	315.56
364.788	309.56
365.015	288.56
365.241	294.56
365.468	307.56
365.694	297.56
365.92	296.56
366.147	302.56
366.373	306.56
366.599	283.56
366.826	294.56
367.052	298.56
367.278	298.56
367.505	314.56
367.731	286.56
367.957	326.56
368.184	290.56
368.41	319.56
368.636	311.56
368.862	305.56
369.089	315.56
369.315	331.56
369.541	313.56
369.767	287.56
369.993	294.56
370.219	287.56
370.445	310.56
370.672	290.56
370.898	297.56
371.124	314.56
371.35	303.56
371.576	299.56
371.802	312.56
372.028	312.56
372.254	299.56
372.48	304.56
372.706	295.56
372.932	288.56
373.158	295.56
373.384	306.56
373.61	311.56
373.835	329.56
374.061	309.56
374.287	306.56
374.513	309.56
374.739	313.56
374.965	298.56
375.191	321.56
375.416	297.56
375.642	305.56
375.868	307.56
376.094	310.56
376.319	315.56
376.545	290.56
376.771	311.56
376.997	299.56
377.222	291.56
377.448	301.56
377.674	300.56
377.899	297.56
378.125	291.56
378.35	293.56
378.576	289.56
378.802	295.56
379.027	296.56
379.253	283.56
379.478	290.56
379.704	301.56
379.929	293.56
380.155	297.56
380.38	298.56
380.606	300.56
380.831	294.56
381.057	290.56
381.282	310.56
381.507	303.56
381.733	303.56
381.958	306.56
382.184	310.56
382.409	314.56
382.634	314.56
382.86	297.56
383.085	314.56
383.31	313.56
383.535	324.56
383.761	301.56
383.986	302.56
384.211	323.56
384.436	321.56
384.662	317.56
384.887	325.56
385.112	319.56
385.337	344.56
385.562	326.56
385.787	324.56
386.013	330.56
386.238	342.56
386.463	341.56
386.688	344.56
386.913	325.56
387.138	344.56
387.363	342.56
387.588	320.56
387.813	334.56
388.038	330.56
388.263	342.56
388.488	340.56
388.713	326.56
388.938	315.56
389.163	326.56
389.387	315.56
389.612	291.56
389.837	331.56
390.062	299.56
390.287	299.56
390.512	306.56
390.736	327.56
390.961	309.56
391.186	311.56
391.411	332.56
391.636	305.56
391.86	326.56
392.085	293.56
392.31	315.56
392.534	333.56
392.759	327.56
392.984	318.56
393.208	353.56
393.433	352.56
393.658	363.56
393.882	332.56
394.107	331.56
394.331	327.56
394.556	329.56
394.78	333.56
395.005	324.56
395.229	308.56
395.454	314.56
395.678	347.56
395.903	332.56
396.127	338.56
396.352	347.56
396.576	338.56
396.801	338.56
397.025	350.56
397.249	336.56
397.474	341.56
397.698	344.56
397.922	334.56
398.147	369.56
398.371	342.56
398.595	331.56
398.82	346.56
399.044	345.56
399.268	372.56
399.492	385.56
399.717	392.56
399.941	419.56
400.165	416.56
400.389	433.56
400.613	393.56
400.837	376.56
401.062	370.56
401.286	346.56
401.51	348.56
401.734	351.56
401.958	343.56
402.182	360.56
402.406	362.56
402.63	347.56
402.854	375.56
403.078	359.56
403.302	353.56
403.526	358.56
403.75	359.56
403.974	373.56
404.198	344.56
404.422	353.56
404.645	353.56
404.869	342.56
405.093	361.56
405.317	376.56
405.541	386.56
405.765	383.56
405.988	373.56
406.212	372.56
406.436	378.56
406.66	387.56
406.883	391.56
407.107	423.56
407.331	407.56
407.555	451.56
407.778	437.56
408.002	419.56
408.226	400.56
408.449	387.56
408.673	389.56
408.896	396.56
409.12	412.56
409.344	394.56
409.567	373.56
409.791	358.56
410.014	365.56
410.238	341.56
410.461	350.56
410.685	364.56
410.908	366.56
411.132	390.56
411.355	388.56
411.578	389.56
411.802	356.56
412.025	343.56
412.249	362.56
412.472	375.56
412.695	346.56
412.919	320.56
413.142	349.56
413.365	331.56
413.589	346.56
413.812	359.56
414.035	339.56
414.258	348.56
414.482	337.56
414.705	340.56
414.928	336.56
415.151	347.56
415.374	340.56
415.597	335.56
415.821	336.56
416.044	344.56
416.267	332.56
416.49	322.56
416.713	327.56
416.936	346.56
417.159	339.56
417.382	346.56
417.605	315.56
417.828	330.56
418.051	363.56
418.274	354.56
418.497	324.56
418.72	319.56
418.943	349.56
419.166	346.56
419.389	351.56
419.611	349.56
419.834	351.56
420.057	347.56
420.28	352.56
420.503	337.56
420.726	351.56
420.948	350.56
421.171	369.56
421.394	395.56
421.617	373.56
421.839	356.56
422.062	358.56
422.285	347.56
422.507	380.56
422.73	437.56
422.953	427.56
423.175	359.56
423.398	355.56
423.621	363.56
423.843	372.56
424.066	350.56
424.288	374.56
424.511	385.56
424.733	427.56
424.956	447.56
425.178	429.56
425.401	430.56
425.623	422.56
425.846	385.56
426.068	374.56
426.291	381.56
426.513	363.56
426.735	373.56
426.958	393.56
427.18	457.56
427.402	517.56
427.625	565.56
427.847	464.56
428.069	404.56
428.292	393.56
428.514	348.56
428.736	371.56
428.958	353.56
429.181	343.56
429.403	343.56
429.625	343.56
429.847	364.56
430.069	403.56
430.292	378.56
430.514	357.56
430.736	331.56
430.958	341.56
431.18	322.56
431.402	328.56
431.624	333.56
431.846	319.56
432.068	333.56
432.29	324.56
432.512	299.56
432.734	318.56
432.956	337.56
433.178	325.56
433.4	338.56
433.622	337.56
433.844	318.56
434.066	337.56
434.287	326.56
434.509	335.56
434.731	338.56
434.953	329.56
435.175	315.56
435.397	364.56
435.618	356.56
435.84	373.56
436.062	437.56
436.284	453.56
436.505	404.56
436.727	375.56
436.949	334.56
437.17	343.56
437.392	324.56
437.614	345.56
437.835	367.56
438.057	417.56
438.278	468.56
438.5	475.56
438.721	529.56
438.943	486.56
439.165	425.56
439.386	367.56
439.608	358.56
439.829	372.56
440.05	352.56
440.272	401.56
440.493	374.56
440.715	348.56
440.936	353.56
441.158	343.56
441.379	350.56
441.6	333.56
441.822	353.56
442.043	399.56
442.264	422.56
442.486	450.56
442.707	402.56
442.928	381.56
443.149	369.56
443.371	391.56
443.592	404.56
443.813	453.56
444.034	486.56
444.255	426.56
444.476	359.56
444.698	379.56
444.919	361.56
445.14	471.56
445.361	411.56
445.582	389.56
445.803	417.56
446.024	477.56
446.245	486.56
446.466	443.56
446.687	377.56
446.908	360.56
447.129	373.56
447.35	363.56
447.571	331.56
447.792	319.56
448.013	337.56
448.234	372.56
448.455	387.56
448.675	437.56
448.896	515.56
449.117	459.56
449.338	424.56
449.559	483.56
449.779	505.56
450	435.56
450.221	353.56
450.442	347.56
450.662	336.56
450.883	331.56
451.104	328.56
451.324	338.56
451.545	305.56
451.766	310.56
451.986	317.56
452.207	297.56
452.428	297.56
452.648	297.56
452.869	316.56
453.089	331.56
453.31	335.56
453.53	294.56
453.751	285.56
453.971	292.56
454.192	324.56
454.412	298.56
454.633	316.56
454.853	281.56
455.073	292.56
455.294	315.56
455.514	345.56
455.734	334.56
455.955	285.56
456.175	269.56
456.395	285.56
456.616	294.56
456.836	295.56
457.056	294.56
457.276	286.56
457.497	293.56
457.717	302.56
457.937	293.56
458.157	283.56
458.377	289.56
458.598	301.56
458.818	334.56
459.038	382.56
459.258	378.56
459.478	359.56
459.698	355.56
459.918	307.56
460.138	326.56
460.358	317.56
460.578	313.56
460.798	318.56
461.018	320.56
461.238	333.56
461.458	331.56
461.678	318.56
461.898	335.56
462.118	344.56
462.338	341.56
462.558	341.56
462.777	341.56
462.997	350.56
463.217	364.56
463.437	343.56
463.657	342.56
463.876	350.56
464.096	365.56
464.316	345.56
464.536	359.56
464.755	345.56
464.975	351.56
465.195	372.56
465.414	409.56
465.634	365.56
465.854	347.56
466.073	345.56
466.293	319.56
466.512	307.56
466.732	311.56
466.951	312.56
467.171	315.56
467.391	305.56
467.61	331.56
467.829	330.56
468.049	316.56
468.268	322.56
468.488	309.56
468.707	307.56
468.927	310.56
469.146	309.56
469.365	305.56
469.585	334.56
469.804	306.56
470.023	315.56
470.243	325.56
470.462	326.56
470.681	337.56
470.901	335.56
471.12	317.56
471.339	325.56
471.558	326.56
471.777	307.56
471.997	317.56
472.216	315.56
472.435	298.56
472.654	309.56
472.873	293.56
473.092	316.56
473.311	313.56
473.53	331.56
473.749	318.56
473.968	355.56
474.187	417.56
474.406	404.56
474.625	341.56
474.844	331.56
475.063	334.56
475.282	330.56
475.501	330.56
475.72	322.56
475.939	327.56
476.158	339.56
476.377	334.56
476.596	337.56
476.814	332.56
477.033	344.56
477.252	345.56
477.471	323.56
477.69	355.56
477.908	341.56
478.127	356.56
478.346	358.56
478.564	362.56
478.783	353.56
479.002	357.56
479.22	366.56
479.439	369.56
479.658	379.56
479.876	382.56
480.095	350.56
480.313	393.56
480.532	389.56
480.751	392.56
480.969	381.56
481.188	388.56
481.406	392.56
481.624	377.56
481.843	372.56
482.061	376.56
482.28	358.56
482.498	383.56
482.717	356.56
482.935	360.56
483.153	381.56
483.372	385.56
483.59	360.56
483.808	373.56
484.027	381.56
484.245	378.56
484.463	387.56
484.681	376.56
484.9	377.56
485.118	371.56
485.336	383.56
485.554	396.56
485.772	381.56
485.99	364.56
486.209	393.56
486.427	375.56
486.645	390.56
486.863	383.56
487.081	395.56
487.299	378.56
487.517	391.56
487.735	379.56
487.953	380.56
488.171	389.56
488.389	393.56
488.607	391.56
488.825	376.56
489.043	407.56
489.261	374.56
489.479	382.56
489.696	397.56
489.914	415.56
490.132	408.56
490.35	411.56
490.568	410.56
490.786	437.56
491.003	407.56
491.221	407.56
491.439	421.56
491.657	419.56
491.874	439.56
492.092	420.56
492.31	451.56
492.527	417.56
492.745	447.56
492.963	431.56
493.18	447.56
493.398	449.56
493.615	453.56
493.833	441.56
494.05	440.56
494.268	436.56
494.485	427.56
494.703	441.56
494.92	449.56
495.138	443.56
495.355	445.56
495.573	437.56
495.79	457.56
496.008	452.56
496.225	457.56
496.442	453.56
496.66	444.56
496.877	454.56
497.094	471.56
497.312	469.56
497.529	455.56
497.746	463.56
497.963	463.56
498.181	476.56
498.398	495.56
498.615	479.56
498.832	502.56
499.049	512.56
499.267	507.56
499.484	524.56
499.701	547.56
499.918	563.56
500.135	595.56
500.352	600.56
500.569	619.56
500.786	626.56
501.003	609.56
501.22	606.56
501.437	597.56
501.654	566.56
501.871	567.56
502.088	549.56
