Data from 1989.PennyLincolnUp.Lamp.En5.5.200Scan.071819.P2_HRD10591_17-25-12-974.txt Node
Date: Thu Jul 18 17:25:12 EDT 2019
User: cochatt
Spectrometer: HR+D1059
Trigger mode: 1
Integration Time (sec): 1.000000E-1
Scans to average: 1
Electric dark correction enabled: true
Nonlinearity correction enabled: false
Boxcar width: 0
XAxis mode: Wavelengths
Number of Pixels in Spectrum: 2048
>>>>>Begin Spectral Data<<<<<
223.165	-18.75
223.4	-18.75
223.635	-18.75
223.869	-20.75
224.104	-31.75
224.338	-13.75
224.573	-20.75
224.808	-22.75
225.042	-4.75
225.277	-13.75
225.511	-8.75
225.746	2.25
225.98	15.25
226.215	9.25
226.449	30.25
226.683	36.25
226.918	27.25
227.152	35.25
227.387	45.25
227.621	28.25
227.856	29.25
228.09	50.25
228.324	34.25
228.559	35.25
228.793	72.25
229.027	94.25
229.262	104.25
229.496	107.25
229.73	126.25
229.964	165.25
230.199	135.25
230.433	121.25
230.667	123.25
230.901	113.25
231.136	103.25
231.37	127.25
231.604	125.25
231.838	109.25
232.072	129.25
232.306	114.25
232.541	122.25
232.775	104.25
233.009	97.25
233.243	98.25
233.477	121.25
233.711	112.25
233.945	111.25
234.179	122.25
234.413	114.25
234.647	122.25
234.881	118.25
235.115	116.25
235.349	114.25
235.583	112.25
235.817	122.25
236.051	143.25
236.285	141.25
236.519	127.25
236.753	145.25
236.987	148.25
237.221	195.25
237.455	247.25
237.689	200.25
237.922	161.25
238.156	136.25
238.39	129.25
238.624	143.25
238.858	115.25
239.091	133.25
239.325	120.25
239.559	105.25
239.793	131.25
240.027	138.25
240.26	167.25
240.494	148.25
240.728	160.25
240.961	149.25
241.195	160.25
241.429	153.25
241.662	144.25
241.896	130.25
242.13	129.25
242.363	139.25
242.597	133.25
242.83	142.25
243.064	151.25
243.298	142.25
243.531	147.25
243.765	144.25
243.998	160.25
244.232	149.25
244.465	149.25
244.699	143.25
244.932	142.25
245.166	144.25
245.399	158.25
245.633	162.25
245.866	148.25
246.099	153.25
246.333	145.25
246.566	170.25
246.8	154.25
247.033	160.25
247.266	183.25
247.5	164.25
247.733	183.25
247.966	198.25
248.2	194.25
248.433	166.25
248.666	183.25
248.899	190.25
249.133	212.25
249.366	222.25
249.599	224.25
249.832	218.25
250.066	194.25
250.299	198.25
250.532	209.25
250.765	224.25
250.998	267.25
251.231	271.25
251.465	233.25
251.698	221.25
251.931	209.25
252.164	222.25
252.397	224.25
252.63	218.25
252.863	225.25
253.096	231.25
253.329	246.25
253.562	267.25
253.795	253.25
254.028	237.25
254.261	257.25
254.494	254.25
254.727	295.25
254.96	323.25
255.193	311.25
255.426	294.25
255.659	267.25
255.892	266.25
256.124	254.25
256.357	271.25
256.59	259.25
256.823	250.25
257.056	237.25
257.289	234.25
257.521	233.25
257.754	244.25
257.987	237.25
258.22	223.25
258.452	229.25
258.685	223.25
258.918	231.25
259.151	239.25
259.383	242.25
259.616	237.25
259.849	253.25
260.081	271.25
260.314	284.25
260.547	269.25
260.779	257.25
261.012	268.25
261.244	246.25
261.477	252.25
261.71	241.25
261.942	255.25
262.175	264.25
262.407	255.25
262.64	258.25
262.872	255.25
263.105	238.25
263.337	249.25
263.57	244.25
263.802	228.25
264.035	235.25
264.267	234.25
264.499	233.25
264.732	229.25
264.964	235.25
265.197	232.25
265.429	227.25
265.661	235.25
265.894	237.25
266.126	228.25
266.358	234.25
266.591	241.25
266.823	262.25
267.055	254.25
267.287	266.25
267.52	240.25
267.752	237.25
267.984	260.25
268.216	261.25
268.448	257.25
268.681	267.25
268.913	242.25
269.145	283.25
269.377	306.25
269.609	311.25
269.841	318.25
270.073	314.25
270.306	325.25
270.538	360.25
270.77	341.25
271.002	352.25
271.234	341.25
271.466	343.25
271.698	331.25
271.93	354.25
272.162	349.25
272.394	356.25
272.626	337.25
272.858	313.25
273.09	322.25
273.322	300.25
273.553	317.25
273.785	290.25
274.017	284.25
274.249	295.25
274.481	301.25
274.713	288.25
274.945	301.25
275.176	303.25
275.408	298.25
275.64	275.25
275.872	292.25
276.104	307.25
276.335	291.25
276.567	281.25
276.799	309.25
277.031	356.25
277.262	351.25
277.494	362.25
277.726	335.25
277.957	316.25
278.189	298.25
278.421	296.25
278.652	319.25
278.884	322.25
279.115	314.25
279.347	309.25
279.579	289.25
279.81	290.25
280.042	284.25
280.273	298.25
280.505	288.25
280.736	298.25
280.968	301.25
281.199	279.25
281.431	293.25
281.662	298.25
281.894	289.25
282.125	295.25
282.356	308.25
282.588	333.25
282.819	336.25
283.051	296.25
283.282	296.25
283.513	313.25
283.745	305.25
283.976	319.25
284.207	295.25
284.439	309.25
284.67	301.25
284.901	299.25
285.132	294.25
285.364	301.25
285.595	281.25
285.826	313.25
286.057	318.25
286.288	294.25
286.52	309.25
286.751	305.25
286.982	301.25
287.213	303.25
287.444	314.25
287.675	305.25
287.906	309.25
288.138	323.25
288.369	324.25
288.6	342.25
288.831	329.25
289.062	311.25
289.293	320.25
289.524	320.25
289.755	315.25
289.986	308.25
290.217	314.25
290.448	326.25
290.679	311.25
290.91	302.25
291.141	319.25
291.371	318.25
291.602	318.25
291.833	295.25
292.064	314.25
292.295	324.25
292.526	315.25
292.757	304.25
292.987	322.25
293.218	314.25
293.449	324.25
293.68	319.25
293.91	301.25
294.141	309.25
294.372	293.25
294.603	321.25
294.833	301.25
295.064	346.25
295.295	326.25
295.525	312.25
295.756	303.25
295.987	321.25
296.217	359.25
296.448	347.25
296.679	346.25
296.909	314.25
297.14	329.25
297.37	333.25
297.601	331.25
297.831	338.25
298.062	341.25
298.292	325.25
298.523	330.25
298.753	325.25
298.984	333.25
299.214	338.25
299.445	343.25
299.675	341.25
299.905	344.25
300.136	338.25
300.366	345.25
300.597	334.25
300.827	344.25
301.057	338.25
301.288	342.25
301.518	340.25
301.748	350.25
301.979	360.25
302.209	346.25
302.439	356.25
302.669	340.25
302.9	349.25
303.13	355.25
303.36	349.25
303.59	353.25
303.82	362.25
304.051	353.25
304.281	341.25
304.511	342.25
304.741	331.25
304.971	347.25
305.201	349.25
305.431	358.25
305.661	351.25
305.891	350.25
306.121	365.25
306.352	352.25
306.582	355.25
306.812	375.25
307.042	354.25
307.272	362.25
307.502	349.25
307.731	365.25
307.961	349.25
308.191	377.25
308.421	347.25
308.651	374.25
308.881	365.25
309.111	367.25
309.341	385.25
309.571	381.25
309.8	384.25
310.03	402.25
310.26	407.25
310.49	423.25
310.72	420.25
310.949	427.25
311.179	422.25
311.409	408.25
311.639	425.25
311.868	430.25
312.098	431.25
312.328	434.25
312.557	434.25
312.787	453.25
313.017	423.25
313.246	435.25
313.476	404.25
313.706	429.25
313.935	414.25
314.165	449.25
314.394	456.25
314.624	448.25
314.853	429.25
315.083	407.25
315.312	405.25
315.542	416.25
315.771	417.25
316.001	419.25
316.23	401.25
316.46	400.25
316.689	404.25
316.919	418.25
317.148	407.25
317.377	419.25
317.607	447.25
317.836	425.25
318.065	405.25
318.295	414.25
318.524	421.25
318.753	419.25
318.983	395.25
319.212	406.25
319.441	416.25
319.67	437.25
319.9	426.25
320.129	398.25
320.358	418.25
320.587	441.25
320.816	427.25
321.046	435.25
321.275	446.25
321.504	439.25
321.733	456.25
321.962	446.25
322.191	472.25
322.42	460.25
322.649	496.25
322.878	511.25
323.108	519.25
323.337	559.25
323.566	552.25
323.795	643.25
324.024	691.25
324.253	819.25
324.482	1208.25
324.71	1803.25
324.939	2643.25
325.168	2289.25
325.397	1177.25
325.626	767.25
325.855	641.25
326.084	591.25
326.313	578.25
326.542	601.25
326.77	648.25
326.999	759.25
327.228	1075.25
327.457	1605.25
327.686	1903.25
327.914	1299.25
328.143	838.25
328.372	726.25
328.6	665.25
328.829	636.25
329.058	649.25
329.287	646.25
329.515	627.25
329.744	582.25
329.972	553.25
330.201	581.25
330.43	625.25
330.658	657.25
330.887	695.25
331.115	689.25
331.344	596.25
331.572	536.25
331.801	546.25
332.03	547.25
332.258	527.25
332.486	498.25
332.715	486.25
332.943	517.25
333.172	481.25
333.4	477.25
333.629	513.25
333.857	514.25
334.085	531.25
334.314	539.25
334.542	566.25
334.771	567.25
334.999	526.25
335.227	522.25
335.455	496.25
335.684	468.25
335.912	479.25
336.14	475.25
336.369	466.25
336.597	492.25
336.825	479.25
337.053	490.25
337.281	463.25
337.51	460.25
337.738	455.25
337.966	463.25
338.194	469.25
338.422	486.25
338.65	474.25
338.878	470.25
339.106	467.25
339.334	456.25
339.562	450.25
339.79	463.25
340.018	438.25
340.246	478.25
340.474	472.25
340.702	449.25
340.93	465.25
341.158	447.25
341.386	462.25
341.614	446.25
341.842	463.25
342.07	436.25
342.298	427.25
342.526	452.25
342.754	432.25
342.981	408.25
343.209	423.25
343.437	440.25
343.665	434.25
343.893	458.25
344.12	455.25
344.348	458.25
344.576	458.25
344.804	486.25
345.031	491.25
345.259	486.25
345.487	463.25
345.714	432.25
345.942	434.25
346.17	453.25
346.397	429.25
346.625	435.25
346.853	459.25
347.08	449.25
347.308	453.25
347.535	455.25
347.763	459.25
347.99	457.25
348.218	463.25
348.445	479.25
348.673	477.25
348.9	455.25
349.128	449.25
349.355	444.25
349.583	436.25
349.81	435.25
350.037	423.25
350.265	444.25
350.492	437.25
350.72	433.25
350.947	436.25
351.174	444.25
351.402	441.25
351.629	418.25
351.856	446.25
352.083	439.25
352.311	454.25
352.538	465.25
352.765	477.25
352.992	469.25
353.22	446.25
353.447	435.25
353.674	457.25
353.901	429.25
354.128	430.25
354.355	407.25
354.583	414.25
354.81	398.25
355.037	411.25
355.264	410.25
355.491	404.25
355.718	400.25
355.945	392.25
356.172	409.25
356.399	386.25
356.626	413.25
356.853	383.25
357.08	403.25
357.307	406.25
357.534	394.25
357.761	404.25
357.988	388.25
358.215	395.25
358.441	405.25
358.668	403.25
358.895	415.25
359.122	431.25
359.349	438.25
359.576	439.25
359.802	477.25
360.029	485.25
360.256	493.25
360.483	493.25
360.709	420.25
360.936	414.25
361.163	440.25
361.39	440.25
361.616	450.25
361.843	440.25
362.07	425.25
362.296	418.25
362.523	443.25
362.749	432.25
362.976	440.25
363.203	422.25
363.429	407.25
363.656	403.25
363.882	407.25
364.109	400.25
364.335	418.25
364.562	418.25
364.788	403.25
365.015	429.25
365.241	426.25
365.468	398.25
365.694	405.25
365.92	424.25
366.147	396.25
366.373	417.25
366.599	410.25
366.826	389.25
367.052	414.25
367.278	401.25
367.505	420.25
367.731	403.25
367.957	417.25
368.184	402.25
368.41	421.25
368.636	422.25
368.862	436.25
369.089	427.25
369.315	425.25
369.541	408.25
369.767	401.25
369.993	409.25
370.219	430.25
370.445	439.25
370.672	397.25
370.898	397.25
371.124	383.25
371.35	391.25
371.576	400.25
371.802	401.25
372.028	410.25
372.254	393.25
372.48	421.25
372.706	400.25
372.932	401.25
373.158	399.25
373.384	406.25
373.61	403.25
373.835	409.25
374.061	400.25
374.287	421.25
374.513	406.25
374.739	371.25
374.965	403.25
375.191	402.25
375.416	426.25
375.642	400.25
375.868	409.25
376.094	402.25
376.319	393.25
376.545	401.25
376.771	402.25
376.997	400.25
377.222	383.25
377.448	385.25
377.674	382.25
377.899	385.25
378.125	380.25
378.35	388.25
378.576	390.25
378.802	383.25
379.027	386.25
379.253	405.25
379.478	397.25
379.704	375.25
379.929	404.25
380.155	399.25
380.38	385.25
380.606	405.25
380.831	404.25
381.057	386.25
381.282	406.25
381.507	383.25
381.733	388.25
381.958	363.25
382.184	403.25
382.409	395.25
382.634	399.25
382.86	393.25
383.085	395.25
383.31	402.25
383.535	408.25
383.761	407.25
383.986	418.25
384.211	423.25
384.436	429.25
384.662	426.25
384.887	415.25
385.112	402.25
385.337	409.25
385.562	407.25
385.787	411.25
386.013	423.25
386.238	442.25
386.463	440.25
386.688	436.25
386.913	431.25
387.138	420.25
387.363	417.25
387.588	421.25
387.813	409.25
388.038	422.25
388.263	409.25
388.488	399.25
388.713	429.25
388.938	419.25
389.163	418.25
389.387	406.25
389.612	407.25
389.837	423.25
390.062	432.25
390.287	429.25
390.512	424.25
390.736	431.25
390.961	409.25
391.186	434.25
391.411	414.25
391.636	420.25
391.86	410.25
392.085	400.25
392.31	445.25
392.534	409.25
392.759	402.25
392.984	410.25
393.208	407.25
393.433	410.25
393.658	414.25
393.882	411.25
394.107	417.25
394.331	421.25
394.556	410.25
394.78	426.25
395.005	426.25
395.229	414.25
395.454	434.25
395.678	424.25
395.903	435.25
396.127	473.25
396.352	489.25
396.576	427.25
396.801	423.25
397.025	446.25
397.249	437.25
397.474	436.25
397.698	457.25
397.922	462.25
398.147	485.25
398.371	481.25
398.595	485.25
398.82	447.25
399.044	473.25
399.268	496.25
399.492	499.25
399.717	535.25
399.941	569.25
400.165	583.25
400.389	593.25
400.613	527.25
400.837	523.25
401.062	511.25
401.286	481.25
401.51	475.25
401.734	477.25
401.958	474.25
402.182	465.25
402.406	466.25
402.63	486.25
402.854	486.25
403.078	484.25
403.302	478.25
403.526	491.25
403.75	516.25
403.974	490.25
404.198	496.25
404.422	477.25
404.645	509.25
404.869	494.25
405.093	529.25
405.317	591.25
405.541	587.25
405.765	532.25
405.988	535.25
406.212	530.25
406.436	565.25
406.66	577.25
406.883	551.25
407.107	579.25
407.331	596.25
407.555	669.25
407.778	635.25
408.002	608.25
408.226	565.25
408.449	553.25
408.673	561.25
408.896	587.25
409.12	614.25
409.344	589.25
409.567	543.25
409.791	507.25
410.014	507.25
410.238	494.25
410.461	518.25
410.685	492.25
410.908	507.25
411.132	526.25
411.355	568.25
411.578	549.25
411.802	500.25
412.025	481.25
412.249	495.25
412.472	511.25
412.695	544.25
412.919	531.25
413.142	521.25
413.365	498.25
413.589	489.25
413.812	488.25
414.035	463.25
414.258	465.25
414.482	457.25
414.705	451.25
414.928	474.25
415.151	440.25
415.374	433.25
415.597	439.25
415.821	454.25
416.044	454.25
416.267	464.25
416.49	457.25
416.713	464.25
416.936	453.25
417.159	445.25
417.382	469.25
417.605	474.25
417.828	470.25
418.051	485.25
418.274	477.25
418.497	450.25
418.72	447.25
418.943	453.25
419.166	497.25
419.389	512.25
419.611	489.25
419.834	502.25
420.057	498.25
420.28	505.25
420.503	494.25
420.726	483.25
420.948	486.25
421.171	550.25
421.394	582.25
421.617	517.25
421.839	482.25
422.062	488.25
422.285	506.25
422.507	562.25
422.73	651.25
422.953	627.25
423.175	540.25
423.398	504.25
423.621	533.25
423.843	544.25
424.066	530.25
424.288	535.25
424.511	544.25
424.733	623.25
424.956	715.25
425.178	671.25
425.401	647.25
425.623	674.25
425.846	577.25
426.068	549.25
426.291	518.25
426.513	516.25
426.735	541.25
426.958	564.25
427.18	647.25
427.402	788.25
427.625	896.25
427.847	797.25
428.069	688.25
428.292	598.25
428.514	539.25
428.736	520.25
428.958	501.25
429.181	509.25
429.403	500.25
429.625	505.25
429.847	534.25
430.069	602.25
430.292	600.25
430.514	532.25
430.736	500.25
430.958	487.25
431.18	480.25
431.402	467.25
431.624	475.25
431.846	457.25
432.068	447.25
432.29	460.25
432.512	455.25
432.734	454.25
432.956	461.25
433.178	473.25
433.4	475.25
433.622	466.25
433.844	447.25
434.066	449.25
434.287	455.25
434.509	446.25
434.731	473.25
434.953	484.25
435.175	494.25
435.397	515.25
435.618	530.25
435.84	584.25
436.062	697.25
436.284	752.25
436.505	631.25
436.727	559.25
436.949	511.25
437.17	523.25
437.392	521.25
437.614	516.25
437.835	543.25
438.057	674.25
438.278	761.25
438.5	741.25
438.721	825.25
438.943	791.25
439.165	617.25
439.386	576.25
439.608	559.25
439.829	563.25
440.05	561.25
440.272	628.25
440.493	630.25
440.715	571.25
440.936	515.25
441.158	476.25
441.379	481.25
441.6	551.25
441.822	535.25
442.043	580.25
442.264	666.25
442.486	712.25
442.707	589.25
442.928	565.25
443.149	554.25
443.371	594.25
443.592	635.25
443.813	712.25
444.034	773.25
444.255	639.25
444.476	549.25
444.698	545.25
444.919	522.25
445.14	632.25
445.361	585.25
445.582	584.25
445.803	669.25
446.024	747.25
446.245	777.25
446.466	704.25
446.687	583.25
446.908	552.25
447.129	522.25
447.35	513.25
447.571	493.25
447.792	514.25
448.013	499.25
448.234	509.25
448.455	554.25
448.675	725.25
448.896	824.25
449.117	673.25
449.338	668.25
449.559	757.25
449.779	825.25
450	670.25
450.221	561.25
450.442	519.25
450.662	493.25
450.883	498.25
451.104	505.25
451.324	498.25
451.545	488.25
451.766	457.25
451.986	433.25
452.207	448.25
452.428	433.25
452.648	434.25
452.869	415.25
453.089	426.25
453.31	462.25
453.53	451.25
453.751	426.25
453.971	429.25
454.192	465.25
454.412	478.25
454.633	450.25
454.853	442.25
455.073	453.25
455.294	468.25
455.514	557.25
455.734	515.25
455.955	449.25
456.175	435.25
456.395	420.25
456.616	406.25
456.836	423.25
457.056	401.25
457.276	393.25
457.497	424.25
457.717	402.25
457.937	405.25
458.157	429.25
458.377	431.25
458.598	460.25
458.818	528.25
459.038	614.25
459.258	641.25
459.478	524.25
459.698	464.25
459.918	458.25
460.138	453.25
460.358	452.25
460.578	469.25
460.798	456.25
461.018	459.25
461.238	452.25
461.458	436.25
461.678	467.25
461.898	462.25
462.118	440.25
462.338	459.25
462.558	465.25
462.777	477.25
462.997	482.25
463.217	501.25
463.437	497.25
463.657	484.25
463.876	478.25
464.096	468.25
464.316	472.25
464.536	471.25
464.755	479.25
464.975	520.25
465.195	547.25
465.414	611.25
465.634	532.25
465.854	526.25
466.073	464.25
466.293	450.25
466.512	434.25
466.732	432.25
466.951	444.25
467.171	413.25
467.391	466.25
467.61	441.25
467.829	436.25
468.049	456.25
468.268	433.25
468.488	454.25
468.707	442.25
468.927	423.25
469.146	417.25
469.365	444.25
469.585	434.25
469.804	455.25
470.023	456.25
470.243	465.25
470.462	459.25
470.681	459.25
470.901	456.25
471.12	437.25
471.339	451.25
471.558	451.25
471.777	457.25
471.997	449.25
472.216	434.25
472.435	480.25
472.654	470.25
472.873	462.25
473.092	448.25
473.311	440.25
473.53	463.25
473.749	463.25
473.968	494.25
474.187	633.25
474.406	657.25
474.625	535.25
474.844	489.25
475.063	460.25
475.282	451.25
475.501	451.25
475.72	477.25
475.939	469.25
476.158	451.25
476.377	457.25
476.596	478.25
476.814	485.25
477.033	483.25
477.252	482.25
477.471	498.25
477.69	469.25
477.908	495.25
478.127	496.25
478.346	487.25
478.564	490.25
478.783	511.25
479.002	511.25
479.22	514.25
479.439	545.25
479.658	549.25
479.876	536.25
480.095	559.25
480.313	569.25
480.532	560.25
480.751	558.25
480.969	563.25
481.188	612.25
481.406	649.25
481.624	582.25
481.843	527.25
482.061	559.25
482.28	540.25
482.498	531.25
482.717	542.25
482.935	561.25
483.153	511.25
483.372	513.25
483.59	524.25
483.808	529.25
484.027	531.25
484.245	528.25
484.463	499.25
484.681	544.25
484.9	522.25
485.118	541.25
485.336	541.25
485.554	535.25
485.772	554.25
485.99	553.25
486.209	550.25
486.427	558.25
486.645	541.25
486.863	574.25
487.081	577.25
487.299	579.25
487.517	590.25
487.735	562.25
487.953	559.25
488.171	594.25
488.389	586.25
488.607	589.25
488.825	575.25
489.043	578.25
489.261	578.25
489.479	583.25
489.696	576.25
489.914	610.25
490.132	599.25
490.35	602.25
490.568	611.25
490.786	599.25
491.003	597.25
491.221	648.25
491.439	657.25
491.657	638.25
491.874	649.25
492.092	659.25
492.31	657.25
492.527	667.25
492.745	664.25
492.963	690.25
493.18	691.25
493.398	666.25
493.615	691.25
493.833	680.25
494.05	673.25
494.268	679.25
494.485	668.25
494.703	667.25
494.92	681.25
495.138	666.25
495.355	679.25
495.573	679.25
495.79	689.25
496.008	696.25
496.225	675.25
496.442	675.25
496.66	690.25
496.877	666.25
497.094	681.25
497.312	690.25
497.529	697.25
497.746	687.25
497.963	711.25
498.181	704.25
498.398	755.25
498.615	722.25
498.832	742.25
499.049	742.25
499.267	746.25
499.484	798.25
499.701	792.25
499.918	826.25
500.135	850.25
500.352	883.25
500.569	873.25
500.786	869.25
501.003	901.25
501.22	857.25
501.437	829.25
501.654	809.25
501.871	845.25
