Data from 1989.PennyLincolnUp.Lamp.En5.5.200Scan.071819.P2_HRD10591_17-23-14-973.txt Node
Date: Thu Jul 18 17:23:14 EDT 2019
User: cochatt
Spectrometer: HR+D1059
Trigger mode: 1
Integration Time (sec): 1.000000E-1
Scans to average: 1
Electric dark correction enabled: true
Nonlinearity correction enabled: false
Boxcar width: 0
XAxis mode: Wavelengths
Number of Pixels in Spectrum: 2048
>>>>>Begin Spectral Data<<<<<
223.165	-15.88
223.4	-15.88
223.635	-15.88
223.869	-19.88
224.104	-15.88
224.338	-18.88
224.573	-11.88
224.808	-16.88
225.042	-21.88
225.277	-12.88
225.511	4.12
225.746	2.12
225.98	0.12
226.215	9.12
226.449	18.12
226.683	30.12
226.918	36.12
227.152	34.12
227.387	34.12
227.621	43.12
227.856	36.12
228.09	41.12
228.324	37.12
228.559	50.12
228.793	59.12
229.027	92.12
229.262	96.12
229.496	111.12
229.73	108.12
229.964	133.12
230.199	138.12
230.433	105.12
230.667	117.12
230.901	100.12
231.136	108.12
231.37	106.12
231.604	98.12
231.838	102.12
232.072	99.12
232.306	110.12
232.541	120.12
232.775	116.12
233.009	106.12
233.243	103.12
233.477	95.12
233.711	98.12
233.945	110.12
234.179	130.12
234.413	122.12
234.647	118.12
234.881	109.12
235.115	103.12
235.349	113.12
235.583	115.12
235.817	106.12
236.051	117.12
236.285	112.12
236.519	124.12
236.753	126.12
236.987	142.12
237.221	167.12
237.455	216.12
237.689	183.12
237.922	121.12
238.156	135.12
238.39	122.12
238.624	124.12
238.858	113.12
239.091	110.12
239.325	114.12
239.559	136.12
239.793	109.12
240.027	124.12
240.26	132.12
240.494	139.12
240.728	145.12
240.961	154.12
241.195	125.12
241.429	119.12
241.662	134.12
241.896	139.12
242.13	123.12
242.363	127.12
242.597	118.12
242.83	124.12
243.064	125.12
243.298	137.12
243.531	155.12
243.765	137.12
243.998	121.12
244.232	126.12
244.465	143.12
244.699	146.12
244.932	130.12
245.166	129.12
245.399	146.12
245.633	141.12
245.866	134.12
246.099	142.12
246.333	153.12
246.566	146.12
246.8	156.12
247.033	153.12
247.266	152.12
247.5	154.12
247.733	171.12
247.966	176.12
248.2	186.12
248.433	177.12
248.666	165.12
248.899	171.12
249.133	186.12
249.366	184.12
249.599	185.12
249.832	169.12
250.066	165.12
250.299	163.12
250.532	185.12
250.765	200.12
250.998	206.12
251.231	197.12
251.465	198.12
251.698	195.12
251.931	204.12
252.164	189.12
252.397	196.12
252.63	199.12
252.863	203.12
253.096	217.12
253.329	206.12
253.562	218.12
253.795	212.12
254.028	201.12
254.261	206.12
254.494	228.12
254.727	257.12
254.96	263.12
255.193	258.12
255.426	252.12
255.659	233.12
255.892	218.12
256.124	208.12
256.357	198.12
256.59	194.12
256.823	207.12
257.056	207.12
257.289	198.12
257.521	187.12
257.754	205.12
257.987	195.12
258.22	202.12
258.452	218.12
258.685	205.12
258.918	200.12
259.151	217.12
259.383	212.12
259.616	219.12
259.849	233.12
260.081	222.12
260.314	243.12
260.547	231.12
260.779	248.12
261.012	227.12
261.244	224.12
261.477	241.12
261.71	227.12
261.942	217.12
262.175	234.12
262.407	218.12
262.64	214.12
262.872	197.12
263.105	215.12
263.337	202.12
263.57	202.12
263.802	214.12
264.035	200.12
264.267	216.12
264.499	186.12
264.732	212.12
264.964	210.12
265.197	223.12
265.429	206.12
265.661	223.12
265.894	213.12
266.126	216.12
266.358	218.12
266.591	201.12
266.823	215.12
267.055	223.12
267.287	232.12
267.52	215.12
267.752	229.12
267.984	228.12
268.216	206.12
268.448	241.12
268.681	227.12
268.913	253.12
269.145	228.12
269.377	237.12
269.609	277.12
269.841	261.12
270.073	262.12
270.306	279.12
270.538	298.12
270.77	292.12
271.002	290.12
271.234	288.12
271.466	299.12
271.698	315.12
271.93	298.12
272.162	300.12
272.394	302.12
272.626	290.12
272.858	277.12
273.09	280.12
273.322	266.12
273.553	249.12
273.785	269.12
274.017	255.12
274.249	249.12
274.481	256.12
274.713	266.12
274.945	272.12
275.176	265.12
275.408	252.12
275.64	254.12
275.872	251.12
276.104	258.12
276.335	259.12
276.567	252.12
276.799	279.12
277.031	294.12
277.262	313.12
277.494	317.12
277.726	306.12
277.957	278.12
278.189	279.12
278.421	267.12
278.652	262.12
278.884	281.12
279.115	280.12
279.347	287.12
279.579	282.12
279.81	289.12
280.042	280.12
280.273	296.12
280.505	306.12
280.736	272.12
280.968	269.12
281.199	270.12
281.431	259.12
281.662	244.12
281.894	269.12
282.125	272.12
282.356	279.12
282.588	290.12
282.819	275.12
283.051	260.12
283.282	273.12
283.513	265.12
283.745	260.12
283.976	291.12
284.207	308.12
284.439	288.12
284.67	273.12
284.901	291.12
285.132	266.12
285.364	268.12
285.595	262.12
285.826	271.12
286.057	273.12
286.288	267.12
286.52	261.12
286.751	277.12
286.982	285.12
287.213	286.12
287.444	283.12
287.675	289.12
287.906	282.12
288.138	293.12
288.369	292.12
288.6	284.12
288.831	307.12
289.062	288.12
289.293	269.12
289.524	286.12
289.755	287.12
289.986	288.12
290.217	289.12
290.448	293.12
290.679	276.12
290.91	288.12
291.141	282.12
291.371	280.12
291.602	270.12
291.833	272.12
292.064	266.12
292.295	274.12
292.526	286.12
292.757	281.12
292.987	288.12
293.218	286.12
293.449	300.12
293.68	277.12
293.91	285.12
294.141	293.12
294.372	279.12
294.603	277.12
294.833	278.12
295.064	293.12
295.295	278.12
295.525	284.12
295.756	293.12
295.987	294.12
296.217	328.12
296.448	322.12
296.679	294.12
296.909	301.12
297.14	294.12
297.37	289.12
297.601	302.12
297.831	283.12
298.062	288.12
298.292	309.12
298.523	300.12
298.753	304.12
298.984	308.12
299.214	308.12
299.445	305.12
299.675	301.12
299.905	296.12
300.136	321.12
300.366	302.12
300.597	312.12
300.827	326.12
301.057	285.12
301.288	316.12
301.518	305.12
301.748	298.12
301.979	329.12
302.209	334.12
302.439	313.12
302.669	304.12
302.9	316.12
303.13	317.12
303.36	319.12
303.59	340.12
303.82	319.12
304.051	326.12
304.281	320.12
304.511	320.12
304.741	333.12
304.971	325.12
305.201	309.12
305.431	325.12
305.661	307.12
305.891	332.12
306.121	318.12
306.352	301.12
306.582	328.12
306.812	329.12
307.042	321.12
307.272	334.12
307.502	326.12
307.731	322.12
307.961	334.12
308.191	314.12
308.421	317.12
308.651	311.12
308.881	344.12
309.111	357.12
309.341	342.12
309.571	343.12
309.8	371.12
310.03	368.12
310.26	377.12
310.49	370.12
310.72	381.12
310.949	382.12
311.179	396.12
311.409	374.12
311.639	385.12
311.868	378.12
312.098	376.12
312.328	366.12
312.557	373.12
312.787	380.12
313.017	396.12
313.246	375.12
313.476	350.12
313.706	373.12
313.935	384.12
314.165	403.12
314.394	388.12
314.624	400.12
314.853	371.12
315.083	376.12
315.312	357.12
315.542	363.12
315.771	370.12
316.001	356.12
316.23	357.12
316.46	353.12
316.689	368.12
316.919	372.12
317.148	382.12
317.377	373.12
317.607	388.12
317.836	378.12
318.065	378.12
318.295	379.12
318.524	383.12
318.753	350.12
318.983	378.12
319.212	365.12
319.441	355.12
319.67	384.12
319.9	384.12
320.129	351.12
320.358	371.12
320.587	374.12
320.816	366.12
321.046	369.12
321.275	380.12
321.504	380.12
321.733	389.12
321.962	403.12
322.191	396.12
322.42	417.12
322.649	419.12
322.878	427.12
323.108	424.12
323.337	456.12
323.566	480.12
323.795	511.12
324.024	548.12
324.253	681.12
324.482	920.12
324.71	1356.12
324.939	1818.12
325.168	1580.12
325.397	885.12
325.626	611.12
325.855	512.12
326.084	487.12
326.313	474.12
326.542	466.12
326.77	514.12
326.999	621.12
327.228	827.12
327.457	1202.12
327.686	1429.12
327.914	974.12
328.143	677.12
328.372	594.12
328.6	555.12
328.829	544.12
329.058	546.12
329.287	553.12
329.515	506.12
329.744	467.12
329.972	444.12
330.201	469.12
330.43	509.12
330.658	531.12
330.887	587.12
331.115	564.12
331.344	491.12
331.572	452.12
331.801	477.12
332.03	464.12
332.258	438.12
332.486	429.12
332.715	418.12
332.943	435.12
333.172	404.12
333.4	417.12
333.629	411.12
333.857	470.12
334.085	438.12
334.314	412.12
334.542	429.12
334.771	433.12
334.999	438.12
335.227	455.12
335.455	419.12
335.684	414.12
335.912	421.12
336.14	410.12
336.369	419.12
336.597	436.12
336.825	441.12
337.053	424.12
337.281	417.12
337.51	425.12
337.738	419.12
337.966	413.12
338.194	432.12
338.422	414.12
338.65	384.12
338.878	398.12
339.106	412.12
339.334	405.12
339.562	407.12
339.79	413.12
340.018	418.12
340.246	401.12
340.474	415.12
340.702	394.12
340.93	401.12
341.158	398.12
341.386	394.12
341.614	399.12
341.842	409.12
342.07	386.12
342.298	392.12
342.526	397.12
342.754	391.12
342.981	381.12
343.209	411.12
343.437	390.12
343.665	421.12
343.893	407.12
344.12	398.12
344.348	407.12
344.576	409.12
344.804	423.12
345.031	408.12
345.259	402.12
345.487	405.12
345.714	405.12
345.942	389.12
346.17	411.12
346.397	403.12
346.625	388.12
346.853	396.12
347.08	393.12
347.308	383.12
347.535	410.12
347.763	415.12
347.99	392.12
348.218	420.12
348.445	414.12
348.673	398.12
348.9	404.12
349.128	387.12
349.355	385.12
349.583	389.12
349.81	384.12
350.037	382.12
350.265	396.12
350.492	373.12
350.72	396.12
350.947	382.12
351.174	403.12
351.402	405.12
351.629	403.12
351.856	394.12
352.083	406.12
352.311	417.12
352.538	405.12
352.765	409.12
352.992	394.12
353.22	381.12
353.447	380.12
353.674	361.12
353.901	358.12
354.128	373.12
354.355	381.12
354.583	359.12
354.81	365.12
355.037	374.12
355.264	382.12
355.491	355.12
355.718	353.12
355.945	354.12
356.172	364.12
356.399	337.12
356.626	359.12
356.853	370.12
357.08	368.12
357.307	363.12
357.534	365.12
357.761	346.12
357.988	370.12
358.215	379.12
358.441	356.12
358.668	374.12
358.895	384.12
359.122	356.12
359.349	364.12
359.576	385.12
359.802	418.12
360.029	423.12
360.256	407.12
360.483	403.12
360.709	404.12
360.936	385.12
361.163	378.12
361.39	406.12
361.616	358.12
361.843	383.12
362.07	391.12
362.296	392.12
362.523	409.12
362.749	393.12
362.976	384.12
363.203	376.12
363.429	368.12
363.656	389.12
363.882	356.12
364.109	378.12
364.335	362.12
364.562	372.12
364.788	361.12
365.015	376.12
365.241	388.12
365.468	384.12
365.694	383.12
365.92	380.12
366.147	377.12
366.373	375.12
366.599	387.12
366.826	369.12
367.052	358.12
367.278	375.12
367.505	356.12
367.731	376.12
367.957	376.12
368.184	370.12
368.41	386.12
368.636	363.12
368.862	380.12
369.089	377.12
369.315	353.12
369.541	349.12
369.767	401.12
369.993	361.12
370.219	361.12
370.445	361.12
370.672	358.12
370.898	362.12
371.124	353.12
371.35	344.12
371.576	359.12
371.802	358.12
372.028	349.12
372.254	363.12
372.48	359.12
372.706	363.12
372.932	370.12
373.158	356.12
373.384	364.12
373.61	362.12
373.835	365.12
374.061	361.12
374.287	370.12
374.513	368.12
374.739	374.12
374.965	375.12
375.191	374.12
375.416	376.12
375.642	373.12
375.868	377.12
376.094	372.12
376.319	355.12
376.545	354.12
376.771	368.12
376.997	342.12
377.222	337.12
377.448	365.12
377.674	357.12
377.899	360.12
378.125	347.12
378.35	360.12
378.576	338.12
378.802	357.12
379.027	358.12
379.253	357.12
379.478	353.12
379.704	373.12
379.929	370.12
380.155	364.12
380.38	370.12
380.606	356.12
380.831	369.12
381.057	397.12
381.282	361.12
381.507	363.12
381.733	356.12
381.958	355.12
382.184	353.12
382.409	353.12
382.634	375.12
382.86	357.12
383.085	367.12
383.31	378.12
383.535	380.12
383.761	372.12
383.986	378.12
384.211	386.12
384.436	375.12
384.662	413.12
384.887	391.12
385.112	391.12
385.337	410.12
385.562	365.12
385.787	391.12
386.013	405.12
386.238	408.12
386.463	373.12
386.688	404.12
386.913	366.12
387.138	406.12
387.363	395.12
387.588	389.12
387.813	372.12
388.038	391.12
388.263	390.12
388.488	412.12
388.713	384.12
388.938	382.12
389.163	407.12
389.387	398.12
389.612	389.12
389.837	373.12
390.062	387.12
390.287	369.12
390.512	392.12
390.736	392.12
390.961	405.12
391.186	379.12
391.411	376.12
391.636	383.12
391.86	415.12
392.085	381.12
392.31	386.12
392.534	397.12
392.759	384.12
392.984	402.12
393.208	431.12
393.433	462.12
393.658	462.12
393.882	430.12
394.107	396.12
394.331	408.12
394.556	389.12
394.78	384.12
395.005	387.12
395.229	381.12
395.454	398.12
395.678	394.12
395.903	408.12
396.127	434.12
396.352	429.12
396.576	429.12
396.801	445.12
397.025	454.12
397.249	444.12
397.474	413.12
397.698	409.12
397.922	429.12
398.147	406.12
398.371	423.12
398.595	428.12
398.82	421.12
399.044	436.12
399.268	444.12
399.492	467.12
399.717	474.12
399.941	504.12
400.165	526.12
400.389	549.12
400.613	494.12
400.837	448.12
401.062	448.12
401.286	434.12
401.51	430.12
401.734	420.12
401.958	431.12
402.182	438.12
402.406	439.12
402.63	459.12
402.854	426.12
403.078	415.12
403.302	429.12
403.526	452.12
403.75	442.12
403.974	420.12
404.198	424.12
404.422	428.12
404.645	428.12
404.869	441.12
405.093	455.12
405.317	461.12
405.541	487.12
405.765	470.12
405.988	474.12
406.212	470.12
406.436	469.12
406.66	484.12
406.883	460.12
407.107	477.12
407.331	545.12
407.555	602.12
407.778	610.12
408.002	535.12
408.226	481.12
408.449	498.12
408.673	496.12
408.896	502.12
409.12	560.12
409.344	499.12
409.567	486.12
409.791	476.12
410.014	454.12
410.238	435.12
410.461	459.12
410.685	442.12
410.908	443.12
411.132	487.12
411.355	510.12
411.578	485.12
411.802	440.12
412.025	435.12
412.249	420.12
412.472	441.12
412.695	440.12
412.919	409.12
413.142	435.12
413.365	424.12
413.589	409.12
413.812	399.12
414.035	414.12
414.258	414.12
414.482	400.12
414.705	403.12
414.928	402.12
415.151	434.12
415.374	424.12
415.597	405.12
415.821	409.12
416.044	410.12
416.267	413.12
416.49	401.12
416.713	410.12
416.936	442.12
417.159	398.12
417.382	415.12
417.605	428.12
417.828	435.12
418.051	425.12
418.274	428.12
418.497	403.12
418.72	427.12
418.943	413.12
419.166	414.12
419.389	445.12
419.611	437.12
419.834	441.12
420.057	446.12
420.28	413.12
420.503	402.12
420.726	441.12
420.948	450.12
421.171	470.12
421.394	496.12
421.617	442.12
421.839	422.12
422.062	436.12
422.285	439.12
422.507	480.12
422.73	562.12
422.953	554.12
423.175	470.12
423.398	444.12
423.621	456.12
423.843	456.12
424.066	481.12
424.288	481.12
424.511	483.12
424.733	538.12
424.956	590.12
425.178	582.12
425.401	576.12
425.623	582.12
425.846	514.12
426.068	481.12
426.291	493.12
426.513	469.12
426.735	482.12
426.958	497.12
427.18	587.12
427.402	700.12
427.625	783.12
427.847	656.12
428.069	554.12
428.292	492.12
428.514	469.12
428.736	434.12
428.958	441.12
429.181	452.12
429.403	416.12
429.625	458.12
429.847	464.12
430.069	522.12
430.292	518.12
430.514	449.12
430.736	440.12
430.958	421.12
431.18	413.12
431.402	392.12
431.624	404.12
431.846	414.12
432.068	404.12
432.29	395.12
432.512	393.12
432.734	402.12
432.956	399.12
433.178	430.12
433.4	428.12
433.622	420.12
433.844	407.12
434.066	406.12
434.287	398.12
434.509	419.12
434.731	428.12
434.953	422.12
435.175	428.12
435.397	454.12
435.618	468.12
435.84	518.12
436.062	577.12
436.284	653.12
436.505	508.12
436.727	484.12
436.949	454.12
437.17	437.12
437.392	429.12
437.614	454.12
437.835	440.12
438.057	554.12
438.278	648.12
438.5	637.12
438.721	707.12
438.943	685.12
439.165	550.12
439.386	499.12
439.608	465.12
439.829	477.12
440.05	501.12
440.272	520.12
440.493	513.12
440.715	458.12
440.936	446.12
441.158	444.12
441.379	433.12
441.6	427.12
441.822	469.12
442.043	509.12
442.264	588.12
442.486	598.12
442.707	512.12
442.928	482.12
443.149	486.12
443.371	503.12
443.592	551.12
443.813	596.12
444.034	672.12
444.255	558.12
444.476	493.12
444.698	482.12
444.919	484.12
445.14	530.12
445.361	526.12
445.582	505.12
445.803	562.12
446.024	648.12
446.245	653.12
446.466	578.12
446.687	514.12
446.908	468.12
447.129	450.12
447.35	450.12
447.571	445.12
447.792	426.12
448.013	440.12
448.234	451.12
448.455	483.12
448.675	622.12
448.896	712.12
449.117	572.12
449.338	556.12
449.559	656.12
449.779	713.12
450	590.12
450.221	482.12
450.442	443.12
450.662	420.12
450.883	422.12
451.104	424.12
451.324	420.12
451.545	405.12
451.766	408.12
451.986	394.12
452.207	378.12
452.428	407.12
452.648	373.12
452.869	388.12
453.089	432.12
453.31	408.12
453.53	409.12
453.751	395.12
453.971	383.12
454.192	382.12
454.412	381.12
454.633	386.12
454.853	392.12
455.073	380.12
455.294	412.12
455.514	467.12
455.734	459.12
455.955	391.12
456.175	393.12
456.395	363.12
456.616	359.12
456.836	374.12
457.056	358.12
457.276	374.12
457.497	359.12
457.717	376.12
457.937	374.12
458.157	364.12
458.377	377.12
458.598	399.12
458.818	443.12
459.038	514.12
459.258	512.12
459.478	456.12
459.698	414.12
459.918	396.12
460.138	388.12
460.358	393.12
460.578	417.12
460.798	407.12
461.018	428.12
461.238	405.12
461.458	400.12
461.678	414.12
461.898	426.12
462.118	416.12
462.338	412.12
462.558	421.12
462.777	425.12
462.997	442.12
463.217	425.12
463.437	451.12
463.657	429.12
463.876	436.12
464.096	427.12
464.316	416.12
464.536	436.12
464.755	430.12
464.975	440.12
465.195	481.12
465.414	527.12
465.634	472.12
465.854	447.12
466.073	430.12
466.293	442.12
466.512	423.12
466.732	396.12
466.951	400.12
467.171	395.12
467.391	404.12
467.61	399.12
467.829	407.12
468.049	391.12
468.268	398.12
468.488	402.12
468.707	390.12
468.927	392.12
469.146	378.12
469.365	390.12
469.585	372.12
469.804	404.12
470.023	389.12
470.243	414.12
470.462	423.12
470.681	424.12
470.901	405.12
471.12	397.12
471.339	408.12
471.558	396.12
471.777	409.12
471.997	397.12
472.216	396.12
472.435	398.12
472.654	393.12
472.873	375.12
473.092	392.12
473.311	386.12
473.53	411.12
473.749	410.12
473.968	446.12
474.187	551.12
474.406	549.12
474.625	444.12
474.844	412.12
475.063	411.12
475.282	406.12
475.501	399.12
475.72	398.12
475.939	390.12
476.158	408.12
476.377	417.12
476.596	429.12
476.814	434.12
477.033	422.12
477.252	440.12
477.471	429.12
477.69	427.12
477.908	439.12
478.127	426.12
478.346	438.12
478.564	425.12
478.783	448.12
479.002	441.12
479.22	450.12
479.439	453.12
479.658	477.12
479.876	496.12
480.095	476.12
480.313	504.12
480.532	481.12
480.751	470.12
480.969	486.12
481.188	484.12
481.406	484.12
481.624	476.12
481.843	451.12
482.061	483.12
482.28	480.12
482.498	465.12
482.717	456.12
482.935	462.12
483.153	477.12
483.372	490.12
483.59	473.12
483.808	466.12
484.027	482.12
484.245	465.12
484.463	481.12
484.681	474.12
484.9	482.12
485.118	482.12
485.336	462.12
485.554	481.12
485.772	491.12
485.99	490.12
486.209	483.12
486.427	493.12
486.645	490.12
486.863	505.12
487.081	540.12
487.299	523.12
487.517	503.12
487.735	514.12
487.953	499.12
488.171	516.12
488.389	518.12
488.607	518.12
488.825	506.12
489.043	517.12
489.261	499.12
489.479	473.12
489.696	503.12
489.914	504.12
490.132	509.12
490.35	501.12
490.568	483.12
490.786	511.12
491.003	526.12
491.221	538.12
491.439	543.12
491.657	567.12
491.874	551.12
492.092	567.12
492.31	569.12
492.527	549.12
492.745	549.12
492.963	575.12
493.18	570.12
493.398	581.12
493.615	546.12
493.833	543.12
494.05	591.12
494.268	578.12
494.485	582.12
494.703	571.12
494.92	587.12
495.138	572.12
495.355	584.12
495.573	573.12
495.79	597.12
496.008	577.12
496.225	577.12
496.442	598.12
496.66	603.12
496.877	606.12
497.094	563.12
497.312	578.12
497.529	585.12
497.746	620.12
497.963	619.12
498.181	629.12
498.398	659.12
498.615	652.12
498.832	642.12
499.049	683.12
499.267	692.12
499.484	686.12
499.701	706.12
499.918	755.12
500.135	772.12
500.352	781.12
500.569	777.12
500.786	769.12
501.003	760.12
501.22	757.12
501.437	745.12
501.654	732.12
501.871	761.12
502.088	728.12
