Data from 1989.PennyLincolnUp.Lamp.En5.5.200Scan.071819.P2_HRD10591_17-24-46-974.txt Node
Date: Thu Jul 18 17:24:46 EDT 2019
User: cochatt
Spectrometer: HR+D1059
Trigger mode: 1
Integration Time (sec): 1.000000E-1
Scans to average: 1
Electric dark correction enabled: true
Nonlinearity correction enabled: false
Boxcar width: 0
XAxis mode: Wavelengths
Number of Pixels in Spectrum: 2048
>>>>>Begin Spectral Data<<<<<
223.165	-19.12
223.4	-19.12
223.635	-19.12
223.869	-19.12
224.104	-13.12
224.338	-15.12
224.573	-27.12
224.808	4.88
225.042	-8.12
225.277	-3.12
225.511	-0.12
225.746	3.88
225.98	-0.12
226.215	6.88
226.449	32.88
226.683	8.88
226.918	13.88
227.152	33.88
227.387	40.88
227.621	38.88
227.856	46.88
228.09	36.88
228.324	28.88
228.559	55.88
228.793	62.88
229.027	103.88
229.262	98.88
229.496	106.88
229.73	129.88
229.964	156.88
230.199	142.88
230.433	131.88
230.667	133.88
230.901	128.88
231.136	112.88
231.37	108.88
231.604	126.88
231.838	104.88
232.072	112.88
232.306	123.88
232.541	111.88
232.775	111.88
233.009	116.88
233.243	116.88
233.477	120.88
233.711	100.88
233.945	120.88
234.179	134.88
234.413	116.88
234.647	121.88
234.881	114.88
235.115	120.88
235.349	95.88
235.583	103.88
235.817	122.88
236.051	124.88
236.285	121.88
236.519	134.88
236.753	146.88
236.987	152.88
237.221	187.88
237.455	258.88
237.689	182.88
237.922	144.88
238.156	146.88
238.39	131.88
238.624	130.88
238.858	122.88
239.091	118.88
239.325	126.88
239.559	135.88
239.793	123.88
240.027	130.88
240.26	150.88
240.494	185.88
240.728	166.88
240.961	152.88
241.195	138.88
241.429	141.88
241.662	144.88
241.896	125.88
242.13	126.88
242.363	122.88
242.597	134.88
242.83	152.88
243.064	156.88
243.298	129.88
243.531	146.88
243.765	144.88
243.998	147.88
244.232	144.88
244.465	156.88
244.699	135.88
244.932	147.88
245.166	146.88
245.399	153.88
245.633	149.88
245.866	148.88
246.099	163.88
246.333	151.88
246.566	142.88
246.8	150.88
247.033	166.88
247.266	160.88
247.5	164.88
247.733	170.88
247.966	170.88
248.2	177.88
248.433	176.88
248.666	189.88
248.899	213.88
249.133	205.88
249.366	211.88
249.599	210.88
249.832	190.88
250.066	192.88
250.299	191.88
250.532	210.88
250.765	196.88
250.998	232.88
251.231	227.88
251.465	217.88
251.698	223.88
251.931	207.88
252.164	202.88
252.397	218.88
252.63	223.88
252.863	222.88
253.096	239.88
253.329	251.88
253.562	238.88
253.795	235.88
254.028	238.88
254.261	232.88
254.494	249.88
254.727	297.88
254.96	312.88
255.193	299.88
255.426	281.88
255.659	252.88
255.892	254.88
256.124	263.88
256.357	234.88
256.59	236.88
256.823	237.88
257.056	252.88
257.289	225.88
257.521	244.88
257.754	245.88
257.987	220.88
258.22	216.88
258.452	232.88
258.685	240.88
258.918	233.88
259.151	222.88
259.383	243.88
259.616	231.88
259.849	257.88
260.081	259.88
260.314	278.88
260.547	274.88
260.779	274.88
261.012	269.88
261.244	262.88
261.477	249.88
261.71	254.88
261.942	242.88
262.175	254.88
262.407	266.88
262.64	216.88
262.872	248.88
263.105	227.88
263.337	232.88
263.57	207.88
263.802	219.88
264.035	216.88
264.267	223.88
264.499	214.88
264.732	206.88
264.964	234.88
265.197	219.88
265.429	227.88
265.661	240.88
265.894	223.88
266.126	245.88
266.358	222.88
266.591	235.88
266.823	265.88
267.055	246.88
267.287	244.88
267.52	267.88
267.752	225.88
267.984	249.88
268.216	253.88
268.448	260.88
268.681	272.88
268.913	271.88
269.145	280.88
269.377	310.88
269.609	289.88
269.841	281.88
270.073	286.88
270.306	302.88
270.538	323.88
270.77	357.88
271.002	332.88
271.234	331.88
271.466	339.88
271.698	350.88
271.93	328.88
272.162	353.88
272.394	357.88
272.626	325.88
272.858	334.88
273.09	302.88
273.322	304.88
273.553	303.88
273.785	299.88
274.017	284.88
274.249	299.88
274.481	298.88
274.713	305.88
274.945	286.88
275.176	297.88
275.408	283.88
275.64	276.88
275.872	295.88
276.104	284.88
276.335	308.88
276.567	306.88
276.799	327.88
277.031	357.88
277.262	338.88
277.494	358.88
277.726	347.88
277.957	300.88
278.189	304.88
278.421	292.88
278.652	286.88
278.884	280.88
279.115	292.88
279.347	297.88
279.579	298.88
279.81	287.88
280.042	281.88
280.273	306.88
280.505	293.88
280.736	272.88
280.968	272.88
281.199	284.88
281.431	280.88
281.662	293.88
281.894	289.88
282.125	299.88
282.356	320.88
282.588	316.88
282.819	333.88
283.051	302.88
283.282	293.88
283.513	291.88
283.745	304.88
283.976	298.88
284.207	288.88
284.439	295.88
284.67	300.88
284.901	292.88
285.132	302.88
285.364	304.88
285.595	302.88
285.826	288.88
286.057	307.88
286.288	313.88
286.52	298.88
286.751	283.88
286.982	305.88
287.213	308.88
287.444	299.88
287.675	298.88
287.906	318.88
288.138	323.88
288.369	333.88
288.6	323.88
288.831	323.88
289.062	304.88
289.293	291.88
289.524	312.88
289.755	312.88
289.986	313.88
290.217	314.88
290.448	309.88
290.679	310.88
290.91	328.88
291.141	297.88
291.371	304.88
291.602	304.88
291.833	308.88
292.064	312.88
292.295	299.88
292.526	307.88
292.757	314.88
292.987	294.88
293.218	315.88
293.449	303.88
293.68	312.88
293.91	297.88
294.141	286.88
294.372	299.88
294.603	310.88
294.833	318.88
295.064	299.88
295.295	318.88
295.525	320.88
295.756	318.88
295.987	333.88
296.217	371.88
296.448	363.88
296.679	322.88
296.909	324.88
297.14	298.88
297.37	312.88
297.601	322.88
297.831	308.88
298.062	298.88
298.292	317.88
298.523	322.88
298.753	331.88
298.984	315.88
299.214	305.88
299.445	323.88
299.675	319.88
299.905	344.88
300.136	340.88
300.366	334.88
300.597	318.88
300.827	330.88
301.057	342.88
301.288	332.88
301.518	330.88
301.748	333.88
301.979	347.88
302.209	335.88
302.439	339.88
302.669	345.88
302.9	338.88
303.13	347.88
303.36	336.88
303.59	343.88
303.82	348.88
304.051	344.88
304.281	331.88
304.511	342.88
304.741	330.88
304.971	333.88
305.201	355.88
305.431	338.88
305.661	353.88
305.891	345.88
306.121	364.88
306.352	340.88
306.582	350.88
306.812	353.88
307.042	339.88
307.272	360.88
307.502	348.88
307.731	359.88
307.961	350.88
308.191	344.88
308.421	341.88
308.651	353.88
308.881	353.88
309.111	363.88
309.341	378.88
309.571	356.88
309.8	374.88
310.03	424.88
310.26	424.88
310.49	375.88
310.72	410.88
310.949	399.88
311.179	419.88
311.409	396.88
311.639	403.88
311.868	410.88
312.098	425.88
312.328	419.88
312.557	425.88
312.787	447.88
313.017	444.88
313.246	419.88
313.476	425.88
313.706	407.88
313.935	420.88
314.165	442.88
314.394	446.88
314.624	430.88
314.853	419.88
315.083	409.88
315.312	416.88
315.542	396.88
315.771	388.88
316.001	400.88
316.23	397.88
316.46	387.88
316.689	399.88
316.919	401.88
317.148	431.88
317.377	417.88
317.607	417.88
317.836	419.88
318.065	421.88
318.295	399.88
318.524	393.88
318.753	398.88
318.983	403.88
319.212	406.88
319.441	414.88
319.67	419.88
319.9	404.88
320.129	419.88
320.358	395.88
320.587	398.88
320.816	463.88
321.046	415.88
321.275	443.88
321.504	434.88
321.733	421.88
321.962	432.88
322.191	455.88
322.42	449.88
322.649	477.88
322.878	482.88
323.108	507.88
323.337	540.88
323.566	553.88
323.795	609.88
324.024	631.88
324.253	800.88
324.482	1131.88
324.71	1737.88
324.939	2459.88
325.168	2153.88
325.397	1157.88
325.626	760.88
325.855	602.88
326.084	574.88
326.313	550.88
326.542	548.88
326.77	608.88
326.999	716.88
327.228	999.88
327.457	1526.88
327.686	1889.88
327.914	1242.88
328.143	844.88
328.372	686.88
328.6	637.88
328.829	609.88
329.058	602.88
329.287	622.88
329.515	592.88
329.744	563.88
329.972	548.88
330.201	553.88
330.43	585.88
330.658	637.88
330.887	657.88
331.115	616.88
331.344	544.88
331.572	532.88
331.801	521.88
332.03	527.88
332.258	489.88
332.486	459.88
332.715	473.88
332.943	488.88
333.172	461.88
333.4	456.88
333.629	485.88
333.857	502.88
334.085	490.88
334.314	481.88
334.542	479.88
334.771	520.88
334.999	514.88
335.227	475.88
335.455	475.88
335.684	466.88
335.912	458.88
336.14	444.88
336.369	450.88
336.597	450.88
336.825	477.88
337.053	458.88
337.281	462.88
337.51	478.88
337.738	455.88
337.966	451.88
338.194	465.88
338.422	471.88
338.65	467.88
338.878	466.88
339.106	455.88
339.334	462.88
339.562	447.88
339.79	438.88
340.018	474.88
340.246	443.88
340.474	453.88
340.702	452.88
340.93	440.88
341.158	452.88
341.386	438.88
341.614	448.88
341.842	469.88
342.07	444.88
342.298	438.88
342.526	468.88
342.754	433.88
342.981	424.88
343.209	416.88
343.437	436.88
343.665	438.88
343.893	426.88
344.12	448.88
344.348	424.88
344.576	422.88
344.804	469.88
345.031	465.88
345.259	471.88
345.487	451.88
345.714	451.88
345.942	440.88
346.17	437.88
346.397	420.88
346.625	435.88
346.853	433.88
347.08	446.88
347.308	435.88
347.535	440.88
347.763	447.88
347.99	458.88
348.218	461.88
348.445	462.88
348.673	458.88
348.9	435.88
349.128	426.88
349.355	417.88
349.583	426.88
349.81	420.88
350.037	404.88
350.265	423.88
350.492	414.88
350.72	406.88
350.947	420.88
351.174	440.88
351.402	447.88
351.629	454.88
351.856	440.88
352.083	422.88
352.311	458.88
352.538	444.88
352.765	444.88
352.992	423.88
353.22	432.88
353.447	418.88
353.674	413.88
353.901	390.88
354.128	418.88
354.355	409.88
354.583	414.88
354.81	394.88
355.037	406.88
355.264	406.88
355.491	392.88
355.718	395.88
355.945	394.88
356.172	399.88
356.399	401.88
356.626	402.88
356.853	412.88
357.08	400.88
357.307	397.88
357.534	384.88
357.761	387.88
357.988	386.88
358.215	390.88
358.441	384.88
358.668	389.88
358.895	411.88
359.122	404.88
359.349	404.88
359.576	417.88
359.802	457.88
360.029	480.88
360.256	483.88
360.483	486.88
360.709	434.88
360.936	435.88
361.163	406.88
361.39	425.88
361.616	426.88
361.843	431.88
362.07	425.88
362.296	424.88
362.523	422.88
362.749	436.88
362.976	413.88
363.203	423.88
363.429	404.88
363.656	400.88
363.882	410.88
364.109	400.88
364.335	417.88
364.562	390.88
364.788	400.88
365.015	396.88
365.241	392.88
365.468	399.88
365.694	403.88
365.92	406.88
366.147	411.88
366.373	419.88
366.599	385.88
366.826	402.88
367.052	402.88
367.278	393.88
367.505	416.88
367.731	422.88
367.957	401.88
368.184	390.88
368.41	394.88
368.636	411.88
368.862	418.88
369.089	394.88
369.315	409.88
369.541	402.88
369.767	388.88
369.993	401.88
370.219	391.88
370.445	390.88
370.672	377.88
370.898	388.88
371.124	378.88
371.35	374.88
371.576	411.88
371.802	384.88
372.028	390.88
372.254	408.88
372.48	381.88
372.706	384.88
372.932	390.88
373.158	395.88
373.384	396.88
373.61	395.88
373.835	391.88
374.061	390.88
374.287	399.88
374.513	407.88
374.739	380.88
374.965	397.88
375.191	395.88
375.416	398.88
375.642	394.88
375.868	396.88
376.094	378.88
376.319	388.88
376.545	384.88
376.771	387.88
376.997	391.88
377.222	391.88
377.448	394.88
377.674	392.88
377.899	385.88
378.125	382.88
378.35	373.88
378.576	384.88
378.802	391.88
379.027	363.88
379.253	396.88
379.478	407.88
379.704	384.88
379.929	386.88
380.155	374.88
380.38	387.88
380.606	400.88
380.831	394.88
381.057	405.88
381.282	377.88
381.507	401.88
381.733	391.88
381.958	372.88
382.184	405.88
382.409	408.88
382.634	390.88
382.86	400.88
383.085	399.88
383.31	392.88
383.535	388.88
383.761	384.88
383.986	428.88
384.211	389.88
384.436	390.88
384.662	401.88
384.887	397.88
385.112	412.88
385.337	408.88
385.562	409.88
385.787	405.88
386.013	424.88
386.238	424.88
386.463	414.88
386.688	406.88
386.913	399.88
387.138	410.88
387.363	410.88
387.588	411.88
387.813	383.88
388.038	409.88
388.263	411.88
388.488	401.88
388.713	417.88
388.938	394.88
389.163	418.88
389.387	405.88
389.612	412.88
389.837	401.88
390.062	409.88
390.287	419.88
390.512	403.88
390.736	404.88
390.961	414.88
391.186	415.88
391.411	424.88
391.636	416.88
391.86	405.88
392.085	434.88
392.31	407.88
392.534	402.88
392.759	411.88
392.984	411.88
393.208	414.88
393.433	410.88
393.658	394.88
393.882	405.88
394.107	419.88
394.331	409.88
394.556	410.88
394.78	405.88
395.005	430.88
395.229	416.88
395.454	427.88
395.678	420.88
395.903	440.88
396.127	456.88
396.352	472.88
396.576	424.88
396.801	435.88
397.025	425.88
397.249	425.88
397.474	432.88
397.698	418.88
397.922	440.88
398.147	465.88
398.371	467.88
398.595	442.88
398.82	448.88
399.044	466.88
399.268	459.88
399.492	484.88
399.717	506.88
399.941	548.88
400.165	554.88
400.389	589.88
400.613	555.88
400.837	498.88
401.062	475.88
401.286	470.88
401.51	462.88
401.734	458.88
401.958	476.88
402.182	456.88
402.406	490.88
402.63	471.88
402.854	466.88
403.078	471.88
403.302	464.88
403.526	484.88
403.75	478.88
403.974	483.88
404.198	474.88
404.422	466.88
404.645	468.88
404.869	483.88
405.093	507.88
405.317	558.88
405.541	551.88
405.765	532.88
405.988	529.88
406.212	524.88
406.436	537.88
406.66	572.88
406.883	524.88
407.107	548.88
407.331	569.88
407.555	640.88
407.778	630.88
408.002	592.88
408.226	564.88
408.449	527.88
408.673	536.88
408.896	560.88
409.12	612.88
409.344	558.88
409.567	500.88
409.791	499.88
410.014	475.88
410.238	482.88
410.461	491.88
410.685	470.88
410.908	525.88
411.132	538.88
411.355	575.88
411.578	532.88
411.802	494.88
412.025	471.88
412.249	480.88
412.472	482.88
412.695	508.88
412.919	510.88
413.142	485.88
413.365	451.88
413.589	461.88
413.812	473.88
414.035	453.88
414.258	427.88
414.482	437.88
414.705	463.88
414.928	440.88
415.151	450.88
415.374	467.88
415.597	444.88
415.821	444.88
416.044	425.88
416.267	439.88
416.49	427.88
416.713	451.88
416.936	450.88
417.159	442.88
417.382	455.88
417.605	469.88
417.828	461.88
418.051	474.88
418.274	451.88
418.497	459.88
418.72	454.88
418.943	440.88
419.166	449.88
419.389	488.88
419.611	474.88
419.834	471.88
420.057	495.88
420.28	472.88
420.503	461.88
420.726	470.88
420.948	476.88
421.171	526.88
421.394	550.88
421.617	482.88
421.839	487.88
422.062	484.88
422.285	478.88
422.507	520.88
422.73	624.88
422.953	593.88
423.175	521.88
423.398	510.88
423.621	482.88
423.843	519.88
424.066	510.88
424.288	518.88
424.511	538.88
424.733	600.88
424.956	679.88
425.178	635.88
425.401	627.88
425.623	658.88
425.846	579.88
426.068	524.88
426.291	538.88
426.513	512.88
426.735	534.88
426.958	601.88
427.18	679.88
427.402	775.88
427.625	879.88
427.847	749.88
428.069	625.88
428.292	552.88
428.514	541.88
428.736	514.88
428.958	505.88
429.181	485.88
429.403	475.88
429.625	488.88
429.847	517.88
430.069	597.88
430.292	577.88
430.514	492.88
430.736	479.88
430.958	458.88
431.18	454.88
431.402	473.88
431.624	436.88
431.846	446.88
432.068	454.88
432.29	435.88
432.512	434.88
432.734	453.88
432.956	459.88
433.178	468.88
433.4	449.88
433.622	449.88
433.844	442.88
434.066	455.88
434.287	438.88
434.509	458.88
434.731	461.88
434.953	455.88
435.175	489.88
435.397	485.88
435.618	507.88
435.84	552.88
436.062	653.88
436.284	719.88
436.505	619.88
436.727	538.88
436.949	504.88
437.17	491.88
437.392	480.88
437.614	501.88
437.835	542.88
438.057	604.88
438.278	741.88
438.5	716.88
438.721	787.88
438.943	778.88
439.165	612.88
439.386	554.88
439.608	526.88
439.829	555.88
440.05	548.88
440.272	622.88
440.493	592.88
440.715	528.88
440.936	485.88
441.158	490.88
441.379	491.88
441.6	490.88
441.822	517.88
442.043	573.88
442.264	638.88
442.486	684.88
442.707	596.88
442.928	544.88
443.149	558.88
443.371	608.88
443.592	647.88
443.813	698.88
444.034	773.88
444.255	604.88
444.476	556.88
444.698	533.88
444.919	531.88
445.14	635.88
445.361	617.88
445.582	572.88
445.803	611.88
446.024	712.88
446.245	771.88
446.466	684.88
446.687	583.88
446.908	532.88
447.129	490.88
447.35	483.88
447.571	500.88
447.792	483.88
448.013	489.88
448.234	507.88
448.455	566.88
448.675	665.88
448.896	764.88
449.117	674.88
449.338	617.88
449.559	735.88
449.779	816.88
450	654.88
450.221	542.88
450.442	515.88
450.662	472.88
450.883	489.88
451.104	516.88
451.324	525.88
451.545	476.88
451.766	457.88
451.986	440.88
452.207	448.88
452.428	422.88
452.648	445.88
452.869	442.88
453.089	438.88
453.31	459.88
453.53	444.88
453.751	448.88
453.971	462.88
454.192	470.88
454.412	444.88
454.633	432.88
454.853	423.88
455.073	428.88
455.294	452.88
455.514	542.88
455.734	525.88
455.955	443.88
456.175	412.88
456.395	409.88
456.616	386.88
456.836	387.88
457.056	382.88
457.276	406.88
457.497	406.88
457.717	410.88
457.937	400.88
458.157	412.88
458.377	415.88
458.598	431.88
458.818	499.88
459.038	597.88
459.258	594.88
459.478	508.88
459.698	464.88
459.918	441.88
460.138	443.88
460.358	449.88
460.578	446.88
460.798	457.88
461.018	448.88
461.238	440.88
461.458	443.88
461.678	444.88
461.898	432.88
462.118	448.88
462.338	452.88
462.558	463.88
462.777	459.88
462.997	475.88
463.217	476.88
463.437	460.88
463.657	455.88
463.876	481.88
464.096	453.88
464.316	459.88
464.536	469.88
464.755	470.88
464.975	468.88
465.195	517.88
465.414	620.88
465.634	558.88
465.854	463.88
466.073	436.88
466.293	457.88
466.512	466.88
466.732	430.88
466.951	446.88
467.171	431.88
467.391	426.88
467.61	453.88
467.829	461.88
468.049	437.88
468.268	434.88
468.488	420.88
468.707	438.88
468.927	416.88
469.146	400.88
469.365	414.88
469.585	404.88
469.804	439.88
470.023	450.88
470.243	422.88
470.462	434.88
470.681	468.88
470.901	462.88
471.12	434.88
471.339	442.88
471.558	437.88
471.777	419.88
471.997	431.88
472.216	440.88
472.435	443.88
472.654	442.88
472.873	430.88
473.092	427.88
473.311	427.88
473.53	436.88
473.749	446.88
473.968	490.88
474.187	609.88
474.406	614.88
474.625	510.88
474.844	474.88
475.063	445.88
475.282	447.88
475.501	451.88
475.72	471.88
475.939	432.88
476.158	459.88
476.377	461.88
476.596	470.88
476.814	468.88
477.033	483.88
477.252	456.88
477.471	472.88
477.69	459.88
477.908	483.88
478.127	475.88
478.346	459.88
478.564	484.88
478.783	487.88
479.002	496.88
479.22	487.88
479.439	489.88
479.658	512.88
479.876	542.88
480.095	541.88
480.313	556.88
480.532	564.88
480.751	534.88
480.969	536.88
481.188	576.88
481.406	593.88
481.624	551.88
481.843	526.88
482.061	514.88
482.28	520.88
482.498	514.88
482.717	517.88
482.935	515.88
483.153	514.88
483.372	519.88
483.59	490.88
483.808	507.88
484.027	504.88
484.245	529.88
484.463	516.88
484.681	522.88
484.9	518.88
485.118	527.88
485.336	500.88
485.554	528.88
485.772	541.88
485.99	529.88
486.209	543.88
486.427	521.88
486.645	550.88
486.863	556.88
487.081	573.88
487.299	548.88
487.517	549.88
487.735	572.88
487.953	557.88
488.171	530.88
488.389	555.88
488.607	558.88
488.825	544.88
489.043	551.88
489.261	568.88
489.479	577.88
489.696	571.88
489.914	557.88
490.132	563.88
490.35	561.88
490.568	582.88
490.786	595.88
491.003	599.88
491.221	614.88
491.439	620.88
491.657	640.88
491.874	633.88
492.092	644.88
492.31	651.88
492.527	624.88
492.745	628.88
492.963	612.88
493.18	638.88
493.398	644.88
493.615	674.88
493.833	655.88
494.05	670.88
494.268	654.88
494.485	655.88
494.703	658.88
494.92	643.88
495.138	678.88
495.355	653.88
495.573	644.88
495.79	674.88
496.008	678.88
496.225	670.88
496.442	636.88
496.66	636.88
496.877	663.88
497.094	662.88
497.312	657.88
497.529	696.88
497.746	682.88
497.963	680.88
498.181	706.88
498.398	723.88
498.615	721.88
498.832	724.88
499.049	715.88
499.267	735.88
499.484	783.88
499.701	774.88
499.918	808.88
500.135	827.88
500.352	823.88
500.569	857.88
500.786	877.88
501.003	844.88
501.22	841.88
501.437	817.88
501.654	816.88
501.871	826.88
