Data from 1989.PennyLincolnUp.Lamp.En5.5.200Scan.071819.P2_HRD10591_17-23-45-973.txt Node
Date: Thu Jul 18 17:23:45 EDT 2019
User: cochatt
Spectrometer: HR+D1059
Trigger mode: 1
Integration Time (sec): 1.000000E-1
Scans to average: 1
Electric dark correction enabled: true
Nonlinearity correction enabled: false
Boxcar width: 0
XAxis mode: Wavelengths
Number of Pixels in Spectrum: 2048
>>>>>Begin Spectral Data<<<<<
223.165	-8.88
223.4	-8.88
223.635	-8.88
223.869	-27.88
224.104	-16.88
224.338	-10.88
224.573	-28.88
224.808	-13.88
225.042	-17.88
225.277	-5.88
225.511	6.12
225.746	7.12
225.98	9.12
226.215	12.12
226.449	12.12
226.683	23.12
226.918	34.12
227.152	27.12
227.387	25.12
227.621	33.12
227.856	44.12
228.09	43.12
228.324	46.12
228.559	70.12
228.793	80.12
229.027	98.12
229.262	106.12
229.496	127.12
229.73	132.12
229.964	158.12
230.199	134.12
230.433	116.12
230.667	122.12
230.901	107.12
231.136	106.12
231.37	97.12
231.604	103.12
231.838	118.12
232.072	121.12
232.306	105.12
232.541	111.12
232.775	121.12
233.009	128.12
233.243	124.12
233.477	115.12
233.711	110.12
233.945	110.12
234.179	125.12
234.413	115.12
234.647	115.12
234.881	126.12
235.115	121.12
235.349	109.12
235.583	119.12
235.817	129.12
236.051	125.12
236.285	125.12
236.519	125.12
236.753	126.12
236.987	125.12
237.221	164.12
237.455	245.12
237.689	192.12
237.922	149.12
238.156	142.12
238.39	123.12
238.624	130.12
238.858	127.12
239.091	119.12
239.325	140.12
239.559	130.12
239.793	127.12
240.027	140.12
240.26	168.12
240.494	154.12
240.728	161.12
240.961	159.12
241.195	163.12
241.429	154.12
241.662	137.12
241.896	129.12
242.13	137.12
242.363	151.12
242.597	147.12
242.83	144.12
243.064	134.12
243.298	154.12
243.531	150.12
243.765	134.12
243.998	150.12
244.232	159.12
244.465	149.12
244.699	132.12
244.932	162.12
245.166	147.12
245.399	151.12
245.633	150.12
245.866	150.12
246.099	157.12
246.333	147.12
246.566	153.12
246.8	158.12
247.033	167.12
247.266	167.12
247.5	150.12
247.733	179.12
247.966	167.12
248.2	190.12
248.433	184.12
248.666	186.12
248.899	202.12
249.133	213.12
249.366	232.12
249.599	191.12
249.832	182.12
250.066	179.12
250.299	188.12
250.532	177.12
250.765	197.12
250.998	214.12
251.231	229.12
251.465	242.12
251.698	217.12
251.931	213.12
252.164	215.12
252.397	212.12
252.63	217.12
252.863	211.12
253.096	225.12
253.329	243.12
253.562	241.12
253.795	229.12
254.028	236.12
254.261	244.12
254.494	265.12
254.727	267.12
254.96	277.12
255.193	269.12
255.426	256.12
255.659	232.12
255.892	253.12
256.124	238.12
256.357	237.12
256.59	236.12
256.823	223.12
257.056	224.12
257.289	228.12
257.521	216.12
257.754	233.12
257.987	217.12
258.22	226.12
258.452	198.12
258.685	231.12
258.918	240.12
259.151	222.12
259.383	217.12
259.616	235.12
259.849	245.12
260.081	236.12
260.314	267.12
260.547	285.12
260.779	261.12
261.012	265.12
261.244	245.12
261.477	230.12
261.71	239.12
261.942	254.12
262.175	269.12
262.407	245.12
262.64	241.12
262.872	254.12
263.105	227.12
263.337	217.12
263.57	223.12
263.802	230.12
264.035	218.12
264.267	273.12
264.499	228.12
264.732	233.12
264.964	222.12
265.197	224.12
265.429	235.12
265.661	218.12
265.894	211.12
266.126	221.12
266.358	219.12
266.591	241.12
266.823	248.12
267.055	216.12
267.287	259.12
267.52	234.12
267.752	250.12
267.984	238.12
268.216	239.12
268.448	230.12
268.681	254.12
268.913	271.12
269.145	274.12
269.377	283.12
269.609	293.12
269.841	289.12
270.073	282.12
270.306	297.12
270.538	325.12
270.77	340.12
271.002	326.12
271.234	313.12
271.466	329.12
271.698	321.12
271.93	354.12
272.162	341.12
272.394	345.12
272.626	301.12
272.858	301.12
273.09	299.12
273.322	271.12
273.553	285.12
273.785	283.12
274.017	286.12
274.249	264.12
274.481	277.12
274.713	283.12
274.945	300.12
275.176	267.12
275.408	276.12
275.64	283.12
275.872	284.12
276.104	281.12
276.335	295.12
276.567	273.12
276.799	307.12
277.031	315.12
277.262	314.12
277.494	341.12
277.726	310.12
277.957	297.12
278.189	294.12
278.421	282.12
278.652	285.12
278.884	281.12
279.115	279.12
279.347	277.12
279.579	285.12
279.81	282.12
280.042	272.12
280.273	267.12
280.505	277.12
280.736	287.12
280.968	290.12
281.199	282.12
281.431	296.12
281.662	276.12
281.894	279.12
282.125	292.12
282.356	299.12
282.588	317.12
282.819	308.12
283.051	297.12
283.282	288.12
283.513	293.12
283.745	309.12
283.976	294.12
284.207	298.12
284.439	296.12
284.67	283.12
284.901	301.12
285.132	299.12
285.364	330.12
285.595	285.12
285.826	279.12
286.057	302.12
286.288	283.12
286.52	295.12
286.751	299.12
286.982	305.12
287.213	302.12
287.444	303.12
287.675	304.12
287.906	325.12
288.138	330.12
288.369	316.12
288.6	313.12
288.831	321.12
289.062	322.12
289.293	301.12
289.524	309.12
289.755	316.12
289.986	297.12
290.217	297.12
290.448	313.12
290.679	309.12
290.91	312.12
291.141	306.12
291.371	289.12
291.602	305.12
291.833	285.12
292.064	319.12
292.295	321.12
292.526	299.12
292.757	306.12
292.987	314.12
293.218	302.12
293.449	310.12
293.68	295.12
293.91	306.12
294.141	302.12
294.372	299.12
294.603	295.12
294.833	291.12
295.064	294.12
295.295	319.12
295.525	328.12
295.756	309.12
295.987	321.12
296.217	328.12
296.448	355.12
296.679	327.12
296.909	293.12
297.14	323.12
297.37	318.12
297.601	315.12
297.831	297.12
298.062	331.12
298.292	316.12
298.523	319.12
298.753	311.12
298.984	313.12
299.214	347.12
299.445	318.12
299.675	326.12
299.905	325.12
300.136	329.12
300.366	321.12
300.597	318.12
300.827	323.12
301.057	335.12
301.288	339.12
301.518	331.12
301.748	353.12
301.979	331.12
302.209	337.12
302.439	334.12
302.669	333.12
302.9	329.12
303.13	340.12
303.36	357.12
303.59	342.12
303.82	353.12
304.051	336.12
304.281	332.12
304.511	337.12
304.741	343.12
304.971	347.12
305.201	326.12
305.431	349.12
305.661	332.12
305.891	350.12
306.121	354.12
306.352	342.12
306.582	358.12
306.812	348.12
307.042	345.12
307.272	334.12
307.502	354.12
307.731	356.12
307.961	363.12
308.191	335.12
308.421	354.12
308.651	353.12
308.881	343.12
309.111	357.12
309.341	360.12
309.571	364.12
309.8	381.12
310.03	381.12
310.26	396.12
310.49	381.12
310.72	399.12
310.949	415.12
311.179	409.12
311.409	389.12
311.639	394.12
311.868	380.12
312.098	379.12
312.328	391.12
312.557	409.12
312.787	428.12
313.017	433.12
313.246	414.12
313.476	417.12
313.706	405.12
313.935	396.12
314.165	419.12
314.394	419.12
314.624	439.12
314.853	403.12
315.083	394.12
315.312	401.12
315.542	383.12
315.771	398.12
316.001	391.12
316.23	387.12
316.46	408.12
316.689	402.12
316.919	423.12
317.148	421.12
317.377	407.12
317.607	404.12
317.836	412.12
318.065	430.12
318.295	408.12
318.524	398.12
318.753	376.12
318.983	382.12
319.212	388.12
319.441	403.12
319.67	411.12
319.9	398.12
320.129	389.12
320.358	375.12
320.587	405.12
320.816	420.12
321.046	412.12
321.275	435.12
321.504	413.12
321.733	418.12
321.962	408.12
322.191	430.12
322.42	459.12
322.649	466.12
322.878	466.12
323.108	474.12
323.337	486.12
323.566	549.12
323.795	561.12
324.024	609.12
324.253	712.12
324.482	1034.12
324.71	1582.12
324.939	2212.12
325.168	1953.12
325.397	1011.12
325.626	690.12
325.855	579.12
326.084	545.12
326.313	542.12
326.542	534.12
326.77	565.12
326.999	690.12
327.228	909.12
327.457	1389.12
327.686	1694.12
327.914	1149.12
328.143	730.12
328.372	647.12
328.6	599.12
328.829	573.12
329.058	579.12
329.287	570.12
329.515	538.12
329.744	533.12
329.972	529.12
330.201	506.12
330.43	535.12
330.658	566.12
330.887	607.12
331.115	584.12
331.344	520.12
331.572	499.12
331.801	490.12
332.03	482.12
332.258	479.12
332.486	452.12
332.715	445.12
332.943	457.12
333.172	453.12
333.4	448.12
333.629	460.12
333.857	469.12
334.085	472.12
334.314	450.12
334.542	466.12
334.771	473.12
334.999	464.12
335.227	456.12
335.455	467.12
335.684	457.12
335.912	456.12
336.14	419.12
336.369	451.12
336.597	460.12
336.825	466.12
337.053	453.12
337.281	437.12
337.51	440.12
337.738	440.12
337.966	453.12
338.194	470.12
338.422	442.12
338.65	439.12
338.878	447.12
339.106	430.12
339.334	443.12
339.562	447.12
339.79	451.12
340.018	435.12
340.246	437.12
340.474	443.12
340.702	435.12
340.93	439.12
341.158	440.12
341.386	422.12
341.614	431.12
341.842	439.12
342.07	442.12
342.298	442.12
342.526	431.12
342.754	428.12
342.981	408.12
343.209	405.12
343.437	434.12
343.665	436.12
343.893	435.12
344.12	443.12
344.348	450.12
344.576	449.12
344.804	446.12
345.031	428.12
345.259	439.12
345.487	451.12
345.714	442.12
345.942	425.12
346.17	433.12
346.397	415.12
346.625	412.12
346.853	420.12
347.08	424.12
347.308	426.12
347.535	434.12
347.763	444.12
347.99	439.12
348.218	428.12
348.445	425.12
348.673	421.12
348.9	422.12
349.128	407.12
349.355	407.12
349.583	411.12
349.81	398.12
350.037	402.12
350.265	397.12
350.492	393.12
350.72	428.12
350.947	417.12
351.174	456.12
351.402	419.12
351.629	417.12
351.856	440.12
352.083	411.12
352.311	460.12
352.538	410.12
352.765	421.12
352.992	432.12
353.22	412.12
353.447	422.12
353.674	425.12
353.901	414.12
354.128	384.12
354.355	382.12
354.583	404.12
354.81	396.12
355.037	399.12
355.264	390.12
355.491	390.12
355.718	400.12
355.945	393.12
356.172	393.12
356.399	367.12
356.626	395.12
356.853	387.12
357.08	387.12
357.307	387.12
357.534	377.12
357.761	404.12
357.988	374.12
358.215	374.12
358.441	397.12
358.668	385.12
358.895	404.12
359.122	421.12
359.349	411.12
359.576	404.12
359.802	413.12
360.029	449.12
360.256	486.12
360.483	461.12
360.709	431.12
360.936	416.12
361.163	435.12
361.39	428.12
361.616	393.12
361.843	422.12
362.07	407.12
362.296	405.12
362.523	407.12
362.749	405.12
362.976	394.12
363.203	444.12
363.429	400.12
363.656	394.12
363.882	402.12
364.109	420.12
364.335	415.12
364.562	388.12
364.788	404.12
365.015	410.12
365.241	419.12
365.468	396.12
365.694	407.12
365.92	414.12
366.147	398.12
366.373	378.12
366.599	404.12
366.826	415.12
367.052	390.12
367.278	391.12
367.505	382.12
367.731	394.12
367.957	394.12
368.184	404.12
368.41	400.12
368.636	391.12
368.862	405.12
369.089	393.12
369.315	369.12
369.541	398.12
369.767	377.12
369.993	370.12
370.219	373.12
370.445	378.12
370.672	387.12
370.898	388.12
371.124	374.12
371.35	412.12
371.576	395.12
371.802	399.12
372.028	381.12
372.254	397.12
372.48	384.12
372.706	379.12
372.932	415.12
373.158	394.12
373.384	405.12
373.61	393.12
373.835	398.12
374.061	396.12
374.287	395.12
374.513	387.12
374.739	385.12
374.965	397.12
375.191	396.12
375.416	401.12
375.642	403.12
375.868	380.12
376.094	389.12
376.319	394.12
376.545	399.12
376.771	387.12
376.997	399.12
377.222	400.12
377.448	371.12
377.674	389.12
377.899	388.12
378.125	377.12
378.35	380.12
378.576	362.12
378.802	375.12
379.027	387.12
379.253	393.12
379.478	372.12
379.704	387.12
379.929	378.12
380.155	379.12
380.38	393.12
380.606	387.12
380.831	389.12
381.057	385.12
381.282	383.12
381.507	379.12
381.733	381.12
381.958	417.12
382.184	383.12
382.409	400.12
382.634	397.12
382.86	399.12
383.085	398.12
383.31	396.12
383.535	413.12
383.761	408.12
383.986	412.12
384.211	414.12
384.436	411.12
384.662	397.12
384.887	407.12
385.112	395.12
385.337	410.12
385.562	393.12
385.787	394.12
386.013	439.12
386.238	429.12
386.463	431.12
386.688	394.12
386.913	402.12
387.138	407.12
387.363	408.12
387.588	405.12
387.813	415.12
388.038	405.12
388.263	420.12
388.488	406.12
388.713	425.12
388.938	405.12
389.163	413.12
389.387	421.12
389.612	389.12
389.837	400.12
390.062	415.12
390.287	415.12
390.512	417.12
390.736	417.12
390.961	417.12
391.186	395.12
391.411	408.12
391.636	402.12
391.86	423.12
392.085	405.12
392.31	402.12
392.534	430.12
392.759	426.12
392.984	408.12
393.208	397.12
393.433	417.12
393.658	390.12
393.882	421.12
394.107	379.12
394.331	427.12
394.556	405.12
394.78	404.12
395.005	415.12
395.229	410.12
395.454	437.12
395.678	414.12
395.903	443.12
396.127	435.12
396.352	450.12
396.576	418.12
396.801	435.12
397.025	443.12
397.249	423.12
397.474	440.12
397.698	432.12
397.922	452.12
398.147	453.12
398.371	455.12
398.595	445.12
398.82	442.12
399.044	484.12
399.268	467.12
399.492	488.12
399.717	536.12
399.941	541.12
400.165	546.12
400.389	585.12
400.613	531.12
400.837	495.12
401.062	494.12
401.286	462.12
401.51	479.12
401.734	461.12
401.958	463.12
402.182	458.12
402.406	476.12
402.63	461.12
402.854	478.12
403.078	474.12
403.302	473.12
403.526	473.12
403.75	489.12
403.974	458.12
404.198	462.12
404.422	462.12
404.645	479.12
404.869	483.12
405.093	492.12
405.317	529.12
405.541	512.12
405.765	528.12
405.988	526.12
406.212	527.12
406.436	528.12
406.66	519.12
406.883	521.12
407.107	537.12
407.331	574.12
407.555	665.12
407.778	636.12
408.002	584.12
408.226	525.12
408.449	537.12
408.673	526.12
408.896	553.12
409.12	598.12
409.344	555.12
409.567	509.12
409.791	474.12
410.014	501.12
410.238	478.12
410.461	478.12
410.685	488.12
410.908	494.12
411.132	521.12
411.355	561.12
411.578	549.12
411.802	482.12
412.025	475.12
412.249	480.12
412.472	499.12
412.695	483.12
412.919	463.12
413.142	454.12
413.365	456.12
413.589	446.12
413.812	453.12
414.035	443.12
414.258	476.12
414.482	441.12
414.705	442.12
414.928	445.12
415.151	439.12
415.374	454.12
415.597	452.12
415.821	437.12
416.044	432.12
416.267	454.12
416.49	430.12
416.713	448.12
416.936	456.12
417.159	450.12
417.382	451.12
417.605	445.12
417.828	458.12
418.051	453.12
418.274	446.12
418.497	469.12
418.72	449.12
418.943	482.12
419.166	471.12
419.389	487.12
419.611	476.12
419.834	476.12
420.057	474.12
420.28	473.12
420.503	447.12
420.726	454.12
420.948	474.12
421.171	521.12
421.394	536.12
421.617	498.12
421.839	472.12
422.062	486.12
422.285	497.12
422.507	521.12
422.73	637.12
422.953	602.12
423.175	517.12
423.398	525.12
423.621	493.12
423.843	497.12
424.066	527.12
424.288	509.12
424.511	541.12
424.733	580.12
424.956	659.12
425.178	645.12
425.401	637.12
425.623	682.12
425.846	561.12
426.068	523.12
426.291	500.12
426.513	496.12
426.735	541.12
426.958	567.12
427.18	638.12
427.402	804.12
427.625	858.12
427.847	722.12
428.069	594.12
428.292	548.12
428.514	513.12
428.736	499.12
428.958	488.12
429.181	477.12
429.403	501.12
429.625	503.12
429.847	508.12
430.069	604.12
430.292	570.12
430.514	515.12
430.736	478.12
430.958	478.12
431.18	453.12
431.402	462.12
431.624	440.12
431.846	439.12
432.068	451.12
432.29	459.12
432.512	461.12
432.734	474.12
432.956	430.12
433.178	475.12
433.4	458.12
433.622	437.12
433.844	440.12
434.066	445.12
434.287	437.12
434.509	462.12
434.731	468.12
434.953	443.12
435.175	475.12
435.397	517.12
435.618	497.12
435.84	563.12
436.062	656.12
436.284	723.12
436.505	591.12
436.727	525.12
436.949	505.12
437.17	481.12
437.392	467.12
437.614	506.12
437.835	533.12
438.057	611.12
438.278	715.12
438.5	710.12
438.721	750.12
438.943	771.12
439.165	603.12
439.386	542.12
439.608	528.12
439.829	512.12
440.05	525.12
440.272	615.12
440.493	565.12
440.715	509.12
440.936	505.12
441.158	449.12
441.379	492.12
441.6	484.12
441.822	502.12
442.043	561.12
442.264	640.12
442.486	673.12
442.707	574.12
442.928	542.12
443.149	539.12
443.371	561.12
443.592	620.12
443.813	689.12
444.034	729.12
444.255	624.12
444.476	534.12
444.698	536.12
444.919	517.12
445.14	605.12
445.361	577.12
445.582	551.12
445.803	636.12
446.024	734.12
446.245	728.12
446.466	681.12
446.687	555.12
446.908	518.12
447.129	472.12
447.35	457.12
447.571	476.12
447.792	478.12
448.013	472.12
448.234	517.12
448.455	547.12
448.675	647.12
448.896	753.12
449.117	645.12
449.338	585.12
449.559	706.12
449.779	805.12
450	663.12
450.221	540.12
450.442	481.12
450.662	486.12
450.883	484.12
451.104	489.12
451.324	470.12
451.545	458.12
451.766	420.12
451.986	430.12
452.207	399.12
452.428	416.12
452.648	404.12
452.869	408.12
453.089	426.12
453.31	452.12
453.53	462.12
453.751	421.12
453.971	433.12
454.192	447.12
454.412	441.12
454.633	415.12
454.853	407.12
455.073	418.12
455.294	449.12
455.514	519.12
455.734	503.12
455.955	440.12
456.175	422.12
456.395	399.12
456.616	400.12
456.836	398.12
457.056	390.12
457.276	378.12
457.497	406.12
457.717	391.12
457.937	410.12
458.157	405.12
458.377	424.12
458.598	437.12
458.818	483.12
459.038	555.12
459.258	597.12
459.478	481.12
459.698	453.12
459.918	436.12
460.138	443.12
460.358	437.12
460.578	417.12
460.798	433.12
461.018	449.12
461.238	442.12
461.458	421.12
461.678	437.12
461.898	440.12
462.118	443.12
462.338	448.12
462.558	457.12
462.777	448.12
462.997	479.12
463.217	478.12
463.437	474.12
463.657	462.12
463.876	465.12
464.096	480.12
464.316	487.12
464.536	473.12
464.755	473.12
464.975	491.12
465.195	533.12
465.414	573.12
465.634	515.12
465.854	449.12
466.073	446.12
466.293	441.12
466.512	452.12
466.732	438.12
466.951	413.12
467.171	415.12
467.391	433.12
467.61	457.12
467.829	451.12
468.049	422.12
468.268	428.12
468.488	405.12
468.707	426.12
468.927	412.12
469.146	398.12
469.365	416.12
469.585	435.12
469.804	411.12
470.023	424.12
470.243	443.12
470.462	455.12
470.681	444.12
470.901	473.12
471.12	422.12
471.339	437.12
471.558	429.12
471.777	445.12
471.997	424.12
472.216	426.12
472.435	435.12
472.654	434.12
472.873	406.12
473.092	429.12
473.311	435.12
473.53	429.12
473.749	462.12
473.968	480.12
474.187	609.12
474.406	629.12
474.625	485.12
474.844	447.12
475.063	428.12
475.282	425.12
475.501	445.12
475.72	451.12
475.939	455.12
476.158	437.12
476.377	435.12
476.596	452.12
476.814	479.12
477.033	459.12
477.252	457.12
477.471	468.12
477.69	465.12
477.908	464.12
478.127	466.12
478.346	449.12
478.564	484.12
478.783	497.12
479.002	487.12
479.22	509.12
479.439	502.12
479.658	510.12
479.876	500.12
480.095	515.12
480.313	574.12
480.532	535.12
480.751	517.12
480.969	526.12
481.188	533.12
481.406	528.12
481.624	518.12
481.843	497.12
482.061	488.12
482.28	489.12
482.498	488.12
482.717	497.12
482.935	507.12
483.153	509.12
483.372	470.12
483.59	489.12
483.808	502.12
484.027	497.12
484.245	504.12
484.463	517.12
484.681	513.12
484.9	527.12
485.118	503.12
485.336	533.12
485.554	512.12
485.772	546.12
485.99	515.12
486.209	522.12
486.427	519.12
486.645	533.12
486.863	545.12
487.081	551.12
487.299	543.12
487.517	555.12
487.735	530.12
487.953	545.12
488.171	583.12
488.389	551.12
488.607	547.12
488.825	541.12
489.043	565.12
489.261	567.12
489.479	567.12
489.696	554.12
489.914	552.12
490.132	541.12
490.35	577.12
490.568	568.12
490.786	583.12
491.003	593.12
491.221	605.12
491.439	601.12
491.657	624.12
491.874	645.12
492.092	629.12
492.31	618.12
492.527	631.12
492.745	623.12
492.963	626.12
493.18	615.12
493.398	610.12
493.615	645.12
493.833	635.12
494.05	625.12
494.268	641.12
494.485	627.12
494.703	641.12
494.92	638.12
495.138	632.12
495.355	673.12
495.573	648.12
495.79	643.12
496.008	650.12
496.225	641.12
496.442	611.12
496.66	660.12
496.877	662.12
497.094	653.12
497.312	634.12
497.529	673.12
497.746	689.12
497.963	705.12
498.181	681.12
498.398	691.12
498.615	722.12
498.832	730.12
499.049	735.12
499.267	714.12
499.484	763.12
499.701	764.12
499.918	795.12
500.135	810.12
500.352	837.12
500.569	844.12
500.786	857.12
501.003	841.12
501.22	851.12
501.437	803.12
501.654	811.12
501.871	809.12
