Data from 1989.PennyLincolnUp.Lamp.En5.5.200Scan.071819.P2_HRD10591_17-23-24-973.txt Node
Date: Thu Jul 18 17:23:24 EDT 2019
User: cochatt
Spectrometer: HR+D1059
Trigger mode: 1
Integration Time (sec): 1.000000E-1
Scans to average: 1
Electric dark correction enabled: true
Nonlinearity correction enabled: false
Boxcar width: 0
XAxis mode: Wavelengths
Number of Pixels in Spectrum: 2048
>>>>>Begin Spectral Data<<<<<
223.165	-15.81
223.4	-15.81
223.635	-15.81
223.869	-17.81
224.104	-18.81
224.338	-17.81
224.573	-4.81
224.808	-24.81
225.042	-18.81
225.277	-7.81
225.511	-6.81
225.746	8.19
225.98	6.19
226.215	15.19
226.449	18.19
226.683	30.19
226.918	17.19
227.152	38.19
227.387	13.19
227.621	32.19
227.856	60.19
228.09	46.19
228.324	39.19
228.559	42.19
228.793	77.19
229.027	99.19
229.262	104.19
229.496	108.19
229.73	127.19
229.964	136.19
230.199	122.19
230.433	123.19
230.667	104.19
230.901	110.19
231.136	111.19
231.37	106.19
231.604	106.19
231.838	117.19
232.072	110.19
232.306	107.19
232.541	113.19
232.775	114.19
233.009	115.19
233.243	115.19
233.477	117.19
233.711	104.19
233.945	120.19
234.179	121.19
234.413	131.19
234.647	106.19
234.881	110.19
235.115	120.19
235.349	119.19
235.583	129.19
235.817	116.19
236.051	124.19
236.285	119.19
236.519	131.19
236.753	128.19
236.987	142.19
237.221	190.19
237.455	206.19
237.689	183.19
237.922	149.19
238.156	139.19
238.39	136.19
238.624	118.19
238.858	126.19
239.091	126.19
239.325	118.19
239.559	113.19
239.793	115.19
240.027	109.19
240.26	141.19
240.494	151.19
240.728	154.19
240.961	149.19
241.195	142.19
241.429	140.19
241.662	128.19
241.896	140.19
242.13	143.19
242.363	147.19
242.597	145.19
242.83	155.19
243.064	149.19
243.298	137.19
243.531	137.19
243.765	134.19
243.998	153.19
244.232	146.19
244.465	139.19
244.699	152.19
244.932	146.19
245.166	142.19
245.399	155.19
245.633	144.19
245.866	141.19
246.099	152.19
246.333	147.19
246.566	149.19
246.8	147.19
247.033	156.19
247.266	144.19
247.5	141.19
247.733	168.19
247.966	166.19
248.2	156.19
248.433	166.19
248.666	169.19
248.899	173.19
249.133	196.19
249.366	215.19
249.599	195.19
249.832	175.19
250.066	165.19
250.299	178.19
250.532	184.19
250.765	192.19
250.998	202.19
251.231	232.19
251.465	208.19
251.698	211.19
251.931	191.19
252.164	189.19
252.397	185.19
252.63	205.19
252.863	206.19
253.096	216.19
253.329	227.19
253.562	227.19
253.795	214.19
254.028	208.19
254.261	222.19
254.494	225.19
254.727	237.19
254.96	270.19
255.193	261.19
255.426	232.19
255.659	222.19
255.892	230.19
256.124	227.19
256.357	200.19
256.59	202.19
256.823	208.19
257.056	215.19
257.289	206.19
257.521	201.19
257.754	222.19
257.987	199.19
258.22	205.19
258.452	209.19
258.685	226.19
258.918	205.19
259.151	213.19
259.383	222.19
259.616	234.19
259.849	218.19
260.081	227.19
260.314	230.19
260.547	262.19
260.779	247.19
261.012	228.19
261.244	220.19
261.477	210.19
261.71	199.19
261.942	219.19
262.175	239.19
262.407	239.19
262.64	212.19
262.872	209.19
263.105	209.19
263.337	220.19
263.57	236.19
263.802	217.19
264.035	205.19
264.267	210.19
264.499	208.19
264.732	203.19
264.964	222.19
265.197	210.19
265.429	212.19
265.661	204.19
265.894	212.19
266.126	229.19
266.358	218.19
266.591	216.19
266.823	222.19
267.055	227.19
267.287	256.19
267.52	230.19
267.752	223.19
267.984	212.19
268.216	230.19
268.448	229.19
268.681	252.19
268.913	236.19
269.145	253.19
269.377	266.19
269.609	263.19
269.841	256.19
270.073	257.19
270.306	284.19
270.538	300.19
270.77	296.19
271.002	285.19
271.234	291.19
271.466	294.19
271.698	309.19
271.93	293.19
272.162	322.19
272.394	316.19
272.626	294.19
272.858	261.19
273.09	263.19
273.322	268.19
273.553	261.19
273.785	260.19
274.017	249.19
274.249	279.19
274.481	268.19
274.713	267.19
274.945	251.19
275.176	264.19
275.408	256.19
275.64	269.19
275.872	272.19
276.104	250.19
276.335	248.19
276.567	257.19
276.799	279.19
277.031	269.19
277.262	295.19
277.494	309.19
277.726	284.19
277.957	267.19
278.189	264.19
278.421	278.19
278.652	259.19
278.884	279.19
279.115	260.19
279.347	267.19
279.579	265.19
279.81	264.19
280.042	251.19
280.273	263.19
280.505	277.19
280.736	271.19
280.968	263.19
281.199	275.19
281.431	280.19
281.662	255.19
281.894	262.19
282.125	282.19
282.356	275.19
282.588	296.19
282.819	299.19
283.051	275.19
283.282	269.19
283.513	267.19
283.745	273.19
283.976	278.19
284.207	268.19
284.439	263.19
284.67	282.19
284.901	272.19
285.132	278.19
285.364	276.19
285.595	295.19
285.826	267.19
286.057	283.19
286.288	273.19
286.52	286.19
286.751	279.19
286.982	270.19
287.213	278.19
287.444	271.19
287.675	267.19
287.906	292.19
288.138	281.19
288.369	299.19
288.6	287.19
288.831	270.19
289.062	276.19
289.293	293.19
289.524	297.19
289.755	277.19
289.986	282.19
290.217	277.19
290.448	279.19
290.679	270.19
290.91	271.19
291.141	270.19
291.371	290.19
291.602	268.19
291.833	273.19
292.064	282.19
292.295	271.19
292.526	270.19
292.757	285.19
292.987	287.19
293.218	280.19
293.449	288.19
293.68	293.19
293.91	289.19
294.141	279.19
294.372	272.19
294.603	302.19
294.833	294.19
295.064	269.19
295.295	291.19
295.525	301.19
295.756	303.19
295.987	307.19
296.217	311.19
296.448	303.19
296.679	313.19
296.909	299.19
297.14	282.19
297.37	301.19
297.601	290.19
297.831	277.19
298.062	294.19
298.292	297.19
298.523	284.19
298.753	299.19
298.984	289.19
299.214	295.19
299.445	287.19
299.675	314.19
299.905	314.19
300.136	298.19
300.366	308.19
300.597	303.19
300.827	325.19
301.057	323.19
301.288	314.19
301.518	310.19
301.748	327.19
301.979	309.19
302.209	333.19
302.439	323.19
302.669	310.19
302.9	295.19
303.13	316.19
303.36	300.19
303.59	320.19
303.82	335.19
304.051	319.19
304.281	321.19
304.511	306.19
304.741	312.19
304.971	312.19
305.201	316.19
305.431	324.19
305.661	320.19
305.891	346.19
306.121	335.19
306.352	334.19
306.582	334.19
306.812	305.19
307.042	307.19
307.272	318.19
307.502	302.19
307.731	323.19
307.961	331.19
308.191	321.19
308.421	318.19
308.651	340.19
308.881	321.19
309.111	313.19
309.341	346.19
309.571	347.19
309.8	343.19
310.03	329.19
310.26	361.19
310.49	348.19
310.72	367.19
310.949	373.19
311.179	387.19
311.409	362.19
311.639	362.19
311.868	364.19
312.098	330.19
312.328	376.19
312.557	371.19
312.787	377.19
313.017	383.19
313.246	368.19
313.476	363.19
313.706	352.19
313.935	365.19
314.165	351.19
314.394	375.19
314.624	368.19
314.853	346.19
315.083	381.19
315.312	366.19
315.542	360.19
315.771	364.19
316.001	362.19
316.23	360.19
316.46	356.19
316.689	334.19
316.919	364.19
317.148	380.19
317.377	359.19
317.607	383.19
317.836	383.19
318.065	368.19
318.295	366.19
318.524	360.19
318.753	357.19
318.983	378.19
319.212	349.19
319.441	346.19
319.67	365.19
319.9	361.19
320.129	397.19
320.358	372.19
320.587	374.19
320.816	371.19
321.046	372.19
321.275	376.19
321.504	398.19
321.733	374.19
321.962	377.19
322.191	391.19
322.42	407.19
322.649	414.19
322.878	427.19
323.108	420.19
323.337	456.19
323.566	450.19
323.795	496.19
324.024	530.19
324.253	593.19
324.482	860.19
324.71	1283.19
324.939	1889.19
325.168	1635.19
325.397	853.19
325.626	566.19
325.855	500.19
326.084	457.19
326.313	447.19
326.542	451.19
326.77	493.19
326.999	588.19
327.228	789.19
327.457	1133.19
327.686	1419.19
327.914	940.19
328.143	629.19
328.372	547.19
328.6	527.19
328.829	513.19
329.058	503.19
329.287	486.19
329.515	475.19
329.744	442.19
329.972	450.19
330.201	476.19
330.43	455.19
330.658	467.19
330.887	526.19
331.115	503.19
331.344	470.19
331.572	451.19
331.801	447.19
332.03	441.19
332.258	442.19
332.486	414.19
332.715	412.19
332.943	423.19
333.172	420.19
333.4	419.19
333.629	434.19
333.857	424.19
334.085	421.19
334.314	411.19
334.542	412.19
334.771	425.19
334.999	437.19
335.227	422.19
335.455	411.19
335.684	403.19
335.912	419.19
336.14	413.19
336.369	412.19
336.597	428.19
336.825	427.19
337.053	409.19
337.281	397.19
337.51	413.19
337.738	405.19
337.966	410.19
338.194	419.19
338.422	407.19
338.65	408.19
338.878	371.19
339.106	401.19
339.334	414.19
339.562	387.19
339.79	397.19
340.018	398.19
340.246	391.19
340.474	424.19
340.702	412.19
340.93	398.19
341.158	392.19
341.386	419.19
341.614	401.19
341.842	402.19
342.07	429.19
342.298	406.19
342.526	387.19
342.754	382.19
342.981	390.19
343.209	389.19
343.437	405.19
343.665	402.19
343.893	396.19
344.12	399.19
344.348	382.19
344.576	405.19
344.804	429.19
345.031	411.19
345.259	414.19
345.487	411.19
345.714	401.19
345.942	407.19
346.17	389.19
346.397	390.19
346.625	385.19
346.853	389.19
347.08	392.19
347.308	369.19
347.535	387.19
347.763	421.19
347.99	404.19
348.218	379.19
348.445	402.19
348.673	380.19
348.9	387.19
349.128	383.19
349.355	378.19
349.583	395.19
349.81	392.19
350.037	367.19
350.265	353.19
350.492	372.19
350.72	368.19
350.947	394.19
351.174	359.19
351.402	387.19
351.629	391.19
351.856	384.19
352.083	389.19
352.311	393.19
352.538	374.19
352.765	402.19
352.992	387.19
353.22	359.19
353.447	379.19
353.674	385.19
353.901	356.19
354.128	385.19
354.355	357.19
354.583	375.19
354.81	367.19
355.037	350.19
355.264	340.19
355.491	359.19
355.718	387.19
355.945	379.19
356.172	354.19
356.399	363.19
356.626	356.19
356.853	357.19
357.08	355.19
357.307	381.19
357.534	369.19
357.761	343.19
357.988	375.19
358.215	367.19
358.441	341.19
358.668	361.19
358.895	357.19
359.122	366.19
359.349	374.19
359.576	374.19
359.802	400.19
360.029	401.19
360.256	418.19
360.483	401.19
360.709	386.19
360.936	389.19
361.163	391.19
361.39	373.19
361.616	381.19
361.843	376.19
362.07	374.19
362.296	384.19
362.523	366.19
362.749	377.19
362.976	377.19
363.203	360.19
363.429	377.19
363.656	359.19
363.882	375.19
364.109	388.19
364.335	363.19
364.562	361.19
364.788	373.19
365.015	381.19
365.241	373.19
365.468	373.19
365.694	372.19
365.92	379.19
366.147	365.19
366.373	365.19
366.599	363.19
366.826	348.19
367.052	359.19
367.278	361.19
367.505	359.19
367.731	363.19
367.957	344.19
368.184	362.19
368.41	361.19
368.636	389.19
368.862	379.19
369.089	368.19
369.315	360.19
369.541	383.19
369.767	355.19
369.993	345.19
370.219	360.19
370.445	369.19
370.672	359.19
370.898	365.19
371.124	357.19
371.35	367.19
371.576	362.19
371.802	357.19
372.028	364.19
372.254	355.19
372.48	350.19
372.706	373.19
372.932	352.19
373.158	362.19
373.384	363.19
373.61	354.19
373.835	352.19
374.061	363.19
374.287	367.19
374.513	375.19
374.739	360.19
374.965	373.19
375.191	360.19
375.416	389.19
375.642	391.19
375.868	381.19
376.094	366.19
376.319	336.19
376.545	366.19
376.771	359.19
376.997	338.19
377.222	350.19
377.448	354.19
377.674	360.19
377.899	352.19
378.125	366.19
378.35	373.19
378.576	357.19
378.802	354.19
379.027	359.19
379.253	382.19
379.478	357.19
379.704	364.19
379.929	357.19
380.155	357.19
380.38	373.19
380.606	372.19
380.831	347.19
381.057	373.19
381.282	360.19
381.507	360.19
381.733	356.19
381.958	356.19
382.184	352.19
382.409	360.19
382.634	360.19
382.86	351.19
383.085	358.19
383.31	361.19
383.535	375.19
383.761	390.19
383.986	367.19
384.211	368.19
384.436	374.19
384.662	373.19
384.887	373.19
385.112	381.19
385.337	377.19
385.562	384.19
385.787	373.19
386.013	375.19
386.238	421.19
386.463	392.19
386.688	385.19
386.913	377.19
387.138	390.19
387.363	383.19
387.588	379.19
387.813	398.19
388.038	409.19
388.263	385.19
388.488	386.19
388.713	361.19
388.938	381.19
389.163	377.19
389.387	376.19
389.612	378.19
389.837	387.19
390.062	376.19
390.287	387.19
390.512	380.19
390.736	365.19
390.961	368.19
391.186	392.19
391.411	393.19
391.636	400.19
391.86	402.19
392.085	379.19
392.31	399.19
392.534	397.19
392.759	384.19
392.984	384.19
393.208	405.19
393.433	402.19
393.658	388.19
393.882	388.19
394.107	389.19
394.331	369.19
394.556	383.19
394.78	371.19
395.005	387.19
395.229	407.19
395.454	381.19
395.678	381.19
395.903	404.19
396.127	413.19
396.352	426.19
396.576	421.19
396.801	389.19
397.025	406.19
397.249	399.19
397.474	411.19
397.698	415.19
397.922	420.19
398.147	431.19
398.371	413.19
398.595	404.19
398.82	420.19
399.044	416.19
399.268	433.19
399.492	457.19
399.717	484.19
399.941	472.19
400.165	519.19
400.389	536.19
400.613	495.19
400.837	460.19
401.062	444.19
401.286	421.19
401.51	439.19
401.734	437.19
401.958	446.19
402.182	437.19
402.406	458.19
402.63	444.19
402.854	450.19
403.078	441.19
403.302	409.19
403.526	469.19
403.75	436.19
403.974	439.19
404.198	457.19
404.422	442.19
404.645	462.19
404.869	461.19
405.093	469.19
405.317	483.19
405.541	489.19
405.765	478.19
405.988	470.19
406.212	480.19
406.436	479.19
406.66	497.19
406.883	489.19
407.107	511.19
407.331	529.19
407.555	585.19
407.778	585.19
408.002	545.19
408.226	501.19
408.449	468.19
408.673	499.19
408.896	496.19
409.12	557.19
409.344	524.19
409.567	480.19
409.791	451.19
410.014	477.19
410.238	463.19
410.461	453.19
410.685	470.19
410.908	478.19
411.132	482.19
411.355	505.19
411.578	502.19
411.802	471.19
412.025	448.19
412.249	437.19
412.472	437.19
412.695	456.19
412.919	431.19
413.142	435.19
413.365	424.19
413.589	435.19
413.812	427.19
414.035	408.19
414.258	407.19
414.482	388.19
414.705	425.19
414.928	421.19
415.151	424.19
415.374	422.19
415.597	400.19
415.821	430.19
416.044	414.19
416.267	415.19
416.49	407.19
416.713	424.19
416.936	412.19
417.159	429.19
417.382	407.19
417.605	415.19
417.828	437.19
418.051	440.19
418.274	431.19
418.497	430.19
418.72	389.19
418.943	426.19
419.166	433.19
419.389	460.19
419.611	458.19
419.834	436.19
420.057	423.19
420.28	432.19
420.503	415.19
420.726	442.19
420.948	439.19
421.171	483.19
421.394	492.19
421.617	467.19
421.839	417.19
422.062	443.19
422.285	446.19
422.507	490.19
422.73	560.19
422.953	563.19
423.175	485.19
423.398	469.19
423.621	458.19
423.843	480.19
424.066	465.19
424.288	451.19
424.511	484.19
424.733	527.19
424.956	602.19
425.178	584.19
425.401	587.19
425.623	613.19
425.846	521.19
426.068	488.19
426.291	481.19
426.513	461.19
426.735	488.19
426.958	514.19
427.18	579.19
427.402	692.19
427.625	759.19
427.847	674.19
428.069	563.19
428.292	508.19
428.514	471.19
428.736	456.19
428.958	431.19
429.181	447.19
429.403	454.19
429.625	464.19
429.847	499.19
430.069	523.19
430.292	545.19
430.514	456.19
430.736	421.19
430.958	416.19
431.18	435.19
431.402	419.19
431.624	413.19
431.846	408.19
432.068	417.19
432.29	426.19
432.512	401.19
432.734	414.19
432.956	423.19
433.178	418.19
433.4	446.19
433.622	427.19
433.844	427.19
434.066	416.19
434.287	415.19
434.509	422.19
434.731	409.19
434.953	435.19
435.175	442.19
435.397	479.19
435.618	481.19
435.84	511.19
436.062	619.19
436.284	648.19
436.505	542.19
436.727	480.19
436.949	454.19
437.17	443.19
437.392	459.19
437.614	448.19
437.835	476.19
438.057	566.19
438.278	647.19
438.5	641.19
438.721	727.19
438.943	697.19
439.165	536.19
439.386	477.19
439.608	467.19
439.829	475.19
440.05	517.19
440.272	539.19
440.493	497.19
440.715	466.19
440.936	469.19
441.158	461.19
441.379	458.19
441.6	465.19
441.822	454.19
442.043	496.19
442.264	587.19
442.486	624.19
442.707	534.19
442.928	485.19
443.149	488.19
443.371	501.19
443.592	540.19
443.813	631.19
444.034	672.19
444.255	573.19
444.476	500.19
444.698	481.19
444.919	470.19
445.14	558.19
445.361	520.19
445.582	510.19
445.803	558.19
446.024	637.19
446.245	655.19
446.466	623.19
446.687	516.19
446.908	479.19
447.129	464.19
447.35	443.19
447.571	433.19
447.792	427.19
448.013	424.19
448.234	459.19
448.455	475.19
448.675	595.19
448.896	718.19
449.117	598.19
449.338	577.19
449.559	664.19
449.779	742.19
450	602.19
450.221	487.19
450.442	462.19
450.662	413.19
450.883	435.19
451.104	446.19
451.324	437.19
451.545	407.19
451.766	399.19
451.986	393.19
452.207	396.19
452.428	401.19
452.648	397.19
452.869	412.19
453.089	401.19
453.31	408.19
453.53	415.19
453.751	390.19
453.971	393.19
454.192	392.19
454.412	399.19
454.633	387.19
454.853	376.19
455.073	387.19
455.294	410.19
455.514	479.19
455.734	484.19
455.955	401.19
456.175	385.19
456.395	368.19
456.616	359.19
456.836	381.19
457.056	381.19
457.276	363.19
457.497	377.19
457.717	373.19
457.937	376.19
458.157	380.19
458.377	391.19
458.598	398.19
458.818	466.19
459.038	531.19
459.258	539.19
459.478	432.19
459.698	423.19
459.918	411.19
460.138	394.19
460.358	405.19
460.578	421.19
460.798	437.19
461.018	407.19
461.238	407.19
461.458	395.19
461.678	413.19
461.898	400.19
462.118	393.19
462.338	441.19
462.558	418.19
462.777	406.19
462.997	442.19
463.217	447.19
463.437	456.19
463.657	439.19
463.876	441.19
464.096	449.19
464.316	437.19
464.536	443.19
464.755	429.19
464.975	455.19
465.195	467.19
465.414	524.19
465.634	463.19
465.854	415.19
466.073	424.19
466.293	405.19
466.512	402.19
466.732	395.19
466.951	387.19
467.171	407.19
467.391	411.19
467.61	407.19
467.829	425.19
468.049	402.19
468.268	389.19
468.488	377.19
468.707	413.19
468.927	403.19
469.146	382.19
469.365	396.19
469.585	397.19
469.804	400.19
470.023	393.19
470.243	406.19
470.462	415.19
470.681	417.19
470.901	397.19
471.12	408.19
471.339	410.19
471.558	417.19
471.777	412.19
471.997	394.19
472.216	391.19
472.435	381.19
472.654	408.19
472.873	408.19
473.092	399.19
473.311	401.19
473.53	402.19
473.749	408.19
473.968	460.19
474.187	543.19
474.406	548.19
474.625	456.19
474.844	424.19
475.063	405.19
475.282	413.19
475.501	422.19
475.72	427.19
475.939	428.19
476.158	428.19
476.377	416.19
476.596	420.19
476.814	432.19
477.033	429.19
477.252	433.19
477.471	422.19
477.69	425.19
477.908	439.19
478.127	447.19
478.346	435.19
478.564	449.19
478.783	462.19
479.002	454.19
479.22	462.19
479.439	459.19
479.658	487.19
479.876	499.19
480.095	475.19
480.313	507.19
480.532	494.19
480.751	489.19
480.969	479.19
481.188	505.19
481.406	483.19
481.624	463.19
481.843	470.19
482.061	470.19
482.28	455.19
482.498	466.19
482.717	435.19
482.935	466.19
483.153	465.19
483.372	483.19
483.59	471.19
483.808	480.19
484.027	486.19
484.245	471.19
484.463	479.19
484.681	479.19
484.9	496.19
485.118	484.19
485.336	471.19
485.554	492.19
485.772	470.19
485.99	483.19
486.209	510.19
486.427	483.19
486.645	496.19
486.863	524.19
487.081	496.19
487.299	499.19
487.517	515.19
487.735	486.19
487.953	486.19
488.171	495.19
488.389	486.19
488.607	489.19
488.825	499.19
489.043	485.19
489.261	509.19
489.479	525.19
489.696	544.19
489.914	525.19
490.132	526.19
490.35	527.19
490.568	524.19
490.786	530.19
491.003	547.19
491.221	544.19
491.439	539.19
491.657	558.19
491.874	566.19
492.092	560.19
492.31	562.19
492.527	569.19
492.745	568.19
492.963	570.19
493.18	564.19
493.398	581.19
493.615	586.19
493.833	594.19
494.05	568.19
494.268	576.19
494.485	573.19
494.703	573.19
494.92	586.19
495.138	587.19
495.355	599.19
495.573	593.19
495.79	586.19
496.008	598.19
496.225	585.19
496.442	598.19
496.66	596.19
496.877	611.19
497.094	614.19
497.312	614.19
497.529	611.19
497.746	599.19
497.963	629.19
498.181	649.19
498.398	640.19
498.615	648.19
498.832	671.19
499.049	674.19
499.267	680.19
499.484	710.19
499.701	741.19
499.918	740.19
500.135	735.19
500.352	781.19
500.569	773.19
500.786	783.19
501.003	775.19
501.22	781.19
501.437	779.19
501.654	742.19
501.871	729.19
