Data from 1989.PennyLincolnUp.Lamp.En5.5.200Scan.071819.P2_HRD10591_17-24-42-973.txt Node
Date: Thu Jul 18 17:24:42 EDT 2019
User: cochatt
Spectrometer: HR+D1059
Trigger mode: 1
Integration Time (sec): 1.000000E-1
Scans to average: 1
Electric dark correction enabled: true
Nonlinearity correction enabled: false
Boxcar width: 0
XAxis mode: Wavelengths
Number of Pixels in Spectrum: 2048
>>>>>Begin Spectral Data<<<<<
223.165	-15.69
223.4	-15.69
223.635	-15.69
223.869	-0.69
224.104	-18.69
224.338	-11.69
224.573	-10.69
224.808	-15.69
225.042	-21.69
225.277	-2.69
225.511	-13.69
225.746	4.31
225.98	-7.69
226.215	20.31
226.449	18.31
226.683	23.31
226.918	27.31
227.152	25.31
227.387	41.31
227.621	34.31
227.856	40.31
228.09	39.31
228.324	53.31
228.559	57.31
228.793	69.31
229.027	99.31
229.262	122.31
229.496	116.31
229.73	146.31
229.964	161.31
230.199	137.31
230.433	116.31
230.667	116.31
230.901	114.31
231.136	130.31
231.37	118.31
231.604	120.31
231.838	124.31
232.072	113.31
232.306	128.31
232.541	123.31
232.775	120.31
233.009	121.31
233.243	113.31
233.477	126.31
233.711	124.31
233.945	106.31
234.179	128.31
234.413	120.31
234.647	123.31
234.881	110.31
235.115	116.31
235.349	114.31
235.583	115.31
235.817	126.31
236.051	129.31
236.285	131.31
236.519	128.31
236.753	147.31
236.987	157.31
237.221	185.31
237.455	250.31
237.689	193.31
237.922	126.31
238.156	140.31
238.39	135.31
238.624	132.31
238.858	124.31
239.091	138.31
239.325	130.31
239.559	129.31
239.793	161.31
240.027	135.31
240.26	143.31
240.494	168.31
240.728	167.31
240.961	153.31
241.195	179.31
241.429	142.31
241.662	137.31
241.896	132.31
242.13	132.31
242.363	134.31
242.597	152.31
242.83	143.31
243.064	150.31
243.298	151.31
243.531	140.31
243.765	143.31
243.998	157.31
244.232	142.31
244.465	141.31
244.699	165.31
244.932	150.31
245.166	146.31
245.399	161.31
245.633	157.31
245.866	174.31
246.099	148.31
246.333	170.31
246.566	159.31
246.8	163.31
247.033	169.31
247.266	170.31
247.5	184.31
247.733	178.31
247.966	191.31
248.2	170.31
248.433	180.31
248.666	194.31
248.899	208.31
249.133	211.31
249.366	210.31
249.599	213.31
249.832	195.31
250.066	209.31
250.299	202.31
250.532	192.31
250.765	218.31
250.998	237.31
251.231	258.31
251.465	226.31
251.698	227.31
251.931	214.31
252.164	221.31
252.397	216.31
252.63	229.31
252.863	242.31
253.096	243.31
253.329	254.31
253.562	241.31
253.795	241.31
254.028	245.31
254.261	236.31
254.494	260.31
254.727	284.31
254.96	313.31
255.193	288.31
255.426	293.31
255.659	260.31
255.892	252.31
256.124	259.31
256.357	253.31
256.59	235.31
256.823	237.31
257.056	226.31
257.289	224.31
257.521	215.31
257.754	246.31
257.987	221.31
258.22	232.31
258.452	245.31
258.685	214.31
258.918	242.31
259.151	225.31
259.383	236.31
259.616	232.31
259.849	241.31
260.081	265.31
260.314	281.31
260.547	295.31
260.779	279.31
261.012	261.31
261.244	242.31
261.477	241.31
261.71	249.31
261.942	256.31
262.175	242.31
262.407	274.31
262.64	252.31
262.872	247.31
263.105	240.31
263.337	242.31
263.57	235.31
263.802	231.31
264.035	248.31
264.267	205.31
264.499	232.31
264.732	215.31
264.964	242.31
265.197	242.31
265.429	229.31
265.661	228.31
265.894	237.31
266.126	238.31
266.358	235.31
266.591	243.31
266.823	257.31
267.055	258.31
267.287	245.31
267.52	242.31
267.752	233.31
267.984	253.31
268.216	254.31
268.448	259.31
268.681	265.31
268.913	274.31
269.145	268.31
269.377	300.31
269.609	309.31
269.841	315.31
270.073	297.31
270.306	332.31
270.538	368.31
270.77	344.31
271.002	352.31
271.234	333.31
271.466	322.31
271.698	336.31
271.93	347.31
272.162	364.31
272.394	345.31
272.626	353.31
272.858	340.31
273.09	329.31
273.322	301.31
273.553	304.31
273.785	292.31
274.017	291.31
274.249	298.31
274.481	285.31
274.713	296.31
274.945	272.31
275.176	318.31
275.408	284.31
275.64	284.31
275.872	298.31
276.104	288.31
276.335	298.31
276.567	317.31
276.799	320.31
277.031	337.31
277.262	363.31
277.494	349.31
277.726	341.31
277.957	326.31
278.189	298.31
278.421	296.31
278.652	301.31
278.884	291.31
279.115	292.31
279.347	292.31
279.579	292.31
279.81	294.31
280.042	270.31
280.273	293.31
280.505	270.31
280.736	306.31
280.968	285.31
281.199	263.31
281.431	289.31
281.662	309.31
281.894	315.31
282.125	311.31
282.356	313.31
282.588	330.31
282.819	334.31
283.051	306.31
283.282	300.31
283.513	275.31
283.745	305.31
283.976	302.31
284.207	311.31
284.439	293.31
284.67	309.31
284.901	288.31
285.132	306.31
285.364	297.31
285.595	298.31
285.826	297.31
286.057	314.31
286.288	298.31
286.52	304.31
286.751	288.31
286.982	306.31
287.213	318.31
287.444	320.31
287.675	314.31
287.906	331.31
288.138	320.31
288.369	334.31
288.6	314.31
288.831	321.31
289.062	308.31
289.293	325.31
289.524	345.31
289.755	310.31
289.986	316.31
290.217	312.31
290.448	325.31
290.679	312.31
290.91	299.31
291.141	313.31
291.371	315.31
291.602	322.31
291.833	312.31
292.064	304.31
292.295	319.31
292.526	314.31
292.757	313.31
292.987	329.31
293.218	316.31
293.449	326.31
293.68	326.31
293.91	324.31
294.141	321.31
294.372	321.31
294.603	325.31
294.833	310.31
295.064	305.31
295.295	322.31
295.525	318.31
295.756	344.31
295.987	328.31
296.217	350.31
296.448	364.31
296.679	337.31
296.909	317.31
297.14	307.31
297.37	331.31
297.601	333.31
297.831	314.31
298.062	319.31
298.292	332.31
298.523	329.31
298.753	328.31
298.984	331.31
299.214	326.31
299.445	320.31
299.675	317.31
299.905	338.31
300.136	324.31
300.366	340.31
300.597	322.31
300.827	356.31
301.057	376.31
301.288	372.31
301.518	364.31
301.748	341.31
301.979	342.31
302.209	340.31
302.439	350.31
302.669	347.31
302.9	344.31
303.13	344.31
303.36	346.31
303.59	360.31
303.82	370.31
304.051	355.31
304.281	366.31
304.511	351.31
304.741	349.31
304.971	350.31
305.201	326.31
305.431	340.31
305.661	347.31
305.891	356.31
306.121	349.31
306.352	369.31
306.582	378.31
306.812	370.31
307.042	350.31
307.272	362.31
307.502	351.31
307.731	359.31
307.961	350.31
308.191	360.31
308.421	368.31
308.651	355.31
308.881	362.31
309.111	369.31
309.341	376.31
309.571	380.31
309.8	392.31
310.03	379.31
310.26	410.31
310.49	408.31
310.72	416.31
310.949	432.31
311.179	464.31
311.409	409.31
311.639	393.31
311.868	425.31
312.098	435.31
312.328	435.31
312.557	436.31
312.787	457.31
313.017	449.31
313.246	423.31
313.476	406.31
313.706	424.31
313.935	414.31
314.165	438.31
314.394	449.31
314.624	432.31
314.853	422.31
315.083	427.31
315.312	409.31
315.542	405.31
315.771	423.31
316.001	396.31
316.23	407.31
316.46	427.31
316.689	405.31
316.919	413.31
317.148	439.31
317.377	433.31
317.607	428.31
317.836	423.31
318.065	417.31
318.295	410.31
318.524	417.31
318.753	423.31
318.983	420.31
319.212	394.31
319.441	435.31
319.67	440.31
319.9	426.31
320.129	405.31
320.358	409.31
320.587	402.31
320.816	419.31
321.046	442.31
321.275	428.31
321.504	432.31
321.733	438.31
321.962	441.31
322.191	440.31
322.42	463.31
322.649	497.31
322.878	517.31
323.108	525.31
323.337	531.31
323.566	552.31
323.795	606.31
324.024	677.31
324.253	784.31
324.482	1097.31
324.71	1752.31
324.939	2510.31
325.168	2164.31
325.397	1130.31
325.626	746.31
325.855	609.31
326.084	584.31
326.313	575.31
326.542	589.31
326.77	622.31
326.999	752.31
327.228	1009.31
327.457	1554.31
327.686	1932.31
327.914	1288.31
328.143	822.31
328.372	682.31
328.6	660.31
328.829	626.31
329.058	647.31
329.287	642.31
329.515	597.31
329.744	562.31
329.972	564.31
330.201	572.31
330.43	608.31
330.658	620.31
330.887	698.31
331.115	665.31
331.344	562.31
331.572	523.31
331.801	518.31
332.03	522.31
332.258	504.31
332.486	481.31
332.715	474.31
332.943	477.31
333.172	494.31
333.4	488.31
333.629	474.31
333.857	494.31
334.085	499.31
334.314	496.31
334.542	514.31
334.771	490.31
334.999	505.31
335.227	504.31
335.455	481.31
335.684	486.31
335.912	477.31
336.14	467.31
336.369	488.31
336.597	473.31
336.825	482.31
337.053	462.31
337.281	471.31
337.51	438.31
337.738	448.31
337.966	503.31
338.194	458.31
338.422	476.31
338.65	453.31
338.878	436.31
339.106	465.31
339.334	449.31
339.562	451.31
339.79	456.31
340.018	467.31
340.246	448.31
340.474	470.31
340.702	435.31
340.93	462.31
341.158	475.31
341.386	467.31
341.614	448.31
341.842	449.31
342.07	445.31
342.298	454.31
342.526	447.31
342.754	444.31
342.981	456.31
343.209	451.31
343.437	453.31
343.665	437.31
343.893	446.31
344.12	441.31
344.348	434.31
344.576	441.31
344.804	449.31
345.031	485.31
345.259	500.31
345.487	476.31
345.714	458.31
345.942	452.31
346.17	440.31
346.397	441.31
346.625	449.31
346.853	436.31
347.08	446.31
347.308	452.31
347.535	444.31
347.763	458.31
347.99	453.31
348.218	463.31
348.445	472.31
348.673	436.31
348.9	430.31
349.128	413.31
349.355	421.31
349.583	424.31
349.81	423.31
350.037	418.31
350.265	422.31
350.492	434.31
350.72	418.31
350.947	444.31
351.174	443.31
351.402	429.31
351.629	454.31
351.856	454.31
352.083	461.31
352.311	450.31
352.538	450.31
352.765	448.31
352.992	446.31
353.22	450.31
353.447	422.31
353.674	425.31
353.901	399.31
354.128	409.31
354.355	414.31
354.583	405.31
354.81	404.31
355.037	417.31
355.264	412.31
355.491	398.31
355.718	387.31
355.945	422.31
356.172	403.31
356.399	387.31
356.626	391.31
356.853	398.31
357.08	408.31
357.307	384.31
357.534	384.31
357.761	406.31
357.988	374.31
358.215	404.31
358.441	394.31
358.668	410.31
358.895	417.31
359.122	416.31
359.349	437.31
359.576	444.31
359.802	476.31
360.029	476.31
360.256	506.31
360.483	481.31
360.709	439.31
360.936	432.31
361.163	444.31
361.39	408.31
361.616	438.31
361.843	419.31
362.07	448.31
362.296	452.31
362.523	451.31
362.749	421.31
362.976	416.31
363.203	428.31
363.429	424.31
363.656	404.31
363.882	431.31
364.109	403.31
364.335	414.31
364.562	404.31
364.788	417.31
365.015	385.31
365.241	402.31
365.468	378.31
365.694	417.31
365.92	426.31
366.147	433.31
366.373	404.31
366.599	401.31
366.826	395.31
367.052	401.31
367.278	398.31
367.505	421.31
367.731	411.31
367.957	429.31
368.184	405.31
368.41	406.31
368.636	416.31
368.862	417.31
369.089	419.31
369.315	405.31
369.541	408.31
369.767	409.31
369.993	388.31
370.219	399.31
370.445	420.31
370.672	394.31
370.898	388.31
371.124	406.31
371.35	391.31
371.576	394.31
371.802	399.31
372.028	410.31
372.254	396.31
372.48	390.31
372.706	390.31
372.932	405.31
373.158	398.31
373.384	411.31
373.61	400.31
373.835	395.31
374.061	382.31
374.287	420.31
374.513	410.31
374.739	397.31
374.965	414.31
375.191	421.31
375.416	390.31
375.642	381.31
375.868	396.31
376.094	410.31
376.319	406.31
376.545	390.31
376.771	372.31
376.997	398.31
377.222	418.31
377.448	389.31
377.674	401.31
377.899	393.31
378.125	402.31
378.35	389.31
378.576	363.31
378.802	364.31
379.027	397.31
379.253	388.31
379.478	392.31
379.704	396.31
379.929	410.31
380.155	400.31
380.38	389.31
380.606	366.31
380.831	388.31
381.057	406.31
381.282	377.31
381.507	371.31
381.733	398.31
381.958	387.31
382.184	401.31
382.409	404.31
382.634	403.31
382.86	401.31
383.085	405.31
383.31	431.31
383.535	406.31
383.761	404.31
383.986	411.31
384.211	399.31
384.436	396.31
384.662	432.31
384.887	412.31
385.112	409.31
385.337	411.31
385.562	408.31
385.787	432.31
386.013	425.31
386.238	438.31
386.463	432.31
386.688	411.31
386.913	413.31
387.138	421.31
387.363	423.31
387.588	423.31
387.813	416.31
388.038	429.31
388.263	416.31
388.488	404.31
388.713	408.31
388.938	416.31
389.163	421.31
389.387	426.31
389.612	404.31
389.837	408.31
390.062	434.31
390.287	406.31
390.512	423.31
390.736	411.31
390.961	409.31
391.186	411.31
391.411	421.31
391.636	427.31
391.86	434.31
392.085	428.31
392.31	439.31
392.534	422.31
392.759	436.31
392.984	422.31
393.208	428.31
393.433	412.31
393.658	417.31
393.882	421.31
394.107	390.31
394.331	434.31
394.556	406.31
394.78	408.31
395.005	436.31
395.229	427.31
395.454	438.31
395.678	440.31
395.903	443.31
396.127	459.31
396.352	476.31
396.576	429.31
396.801	416.31
397.025	422.31
397.249	419.31
397.474	448.31
397.698	450.31
397.922	460.31
398.147	473.31
398.371	464.31
398.595	454.31
398.82	462.31
399.044	457.31
399.268	467.31
399.492	492.31
399.717	531.31
399.941	572.31
400.165	573.31
400.389	598.31
400.613	553.31
400.837	500.31
401.062	464.31
401.286	509.31
401.51	470.31
401.734	456.31
401.958	485.31
402.182	477.31
402.406	493.31
402.63	496.31
402.854	497.31
403.078	485.31
403.302	481.31
403.526	488.31
403.75	470.31
403.974	493.31
404.198	474.31
404.422	492.31
404.645	494.31
404.869	477.31
405.093	500.31
405.317	556.31
405.541	588.31
405.765	538.31
405.988	520.31
406.212	501.31
406.436	530.31
406.66	577.31
406.883	538.31
407.107	565.31
407.331	588.31
407.555	645.31
407.778	661.31
408.002	583.31
408.226	571.31
408.449	574.31
408.673	546.31
408.896	566.31
409.12	629.31
409.344	578.31
409.567	524.31
409.791	492.31
410.014	472.31
410.238	507.31
410.461	484.31
410.685	485.31
410.908	485.31
411.132	525.31
411.355	580.31
411.578	544.31
411.802	489.31
412.025	475.31
412.249	487.31
412.472	468.31
412.695	517.31
412.919	518.31
413.142	508.31
413.365	472.31
413.589	450.31
413.812	469.31
414.035	470.31
414.258	449.31
414.482	446.31
414.705	437.31
414.928	462.31
415.151	456.31
415.374	451.31
415.597	461.31
415.821	423.31
416.044	469.31
416.267	450.31
416.49	468.31
416.713	451.31
416.936	469.31
417.159	478.31
417.382	453.31
417.605	453.31
417.828	503.31
418.051	482.31
418.274	468.31
418.497	484.31
418.72	459.31
418.943	458.31
419.166	471.31
419.389	479.31
419.611	499.31
419.834	483.31
420.057	476.31
420.28	476.31
420.503	465.31
420.726	472.31
420.948	497.31
421.171	532.31
421.394	569.31
421.617	501.31
421.839	488.31
422.062	468.31
422.285	498.31
422.507	550.31
422.73	619.31
422.953	622.31
423.175	547.31
423.398	516.31
423.621	508.31
423.843	527.31
424.066	530.31
424.288	537.31
424.511	553.31
424.733	601.31
424.956	675.31
425.178	641.31
425.401	661.31
425.623	665.31
425.846	562.31
426.068	542.31
426.291	558.31
426.513	540.31
426.735	552.31
426.958	582.31
427.18	654.31
427.402	803.31
427.625	875.31
427.847	761.31
428.069	648.31
428.292	581.31
428.514	532.31
428.736	502.31
428.958	519.31
429.181	501.31
429.403	504.31
429.625	510.31
429.847	547.31
430.069	621.31
430.292	624.31
430.514	530.31
430.736	488.31
430.958	481.31
431.18	475.31
431.402	459.31
431.624	452.31
431.846	448.31
432.068	449.31
432.29	425.31
432.512	453.31
432.734	465.31
432.956	455.31
433.178	485.31
433.4	475.31
433.622	465.31
433.844	461.31
434.066	432.31
434.287	444.31
434.509	462.31
434.731	458.31
434.953	475.31
435.175	502.31
435.397	507.31
435.618	521.31
435.84	571.31
436.062	655.31
436.284	725.31
436.505	612.31
436.727	555.31
436.949	485.31
437.17	498.31
437.392	494.31
437.614	498.31
437.835	537.31
438.057	637.31
438.278	741.31
438.5	722.31
438.721	818.31
438.943	767.31
439.165	613.31
439.386	574.31
439.608	555.31
439.829	541.31
440.05	575.31
440.272	624.31
440.493	598.31
440.715	518.31
440.936	506.31
441.158	517.31
441.379	515.31
441.6	494.31
441.822	530.31
442.043	577.31
442.264	668.31
442.486	700.31
442.707	597.31
442.928	581.31
443.149	554.31
443.371	588.31
443.592	619.31
443.813	691.31
444.034	751.31
444.255	666.31
444.476	560.31
444.698	545.31
444.919	532.31
445.14	625.31
445.361	580.31
445.582	588.31
445.803	657.31
446.024	750.31
446.245	795.31
446.466	710.31
446.687	598.31
446.908	536.31
447.129	503.31
447.35	501.31
447.571	515.31
447.792	491.31
448.013	487.31
448.234	504.31
448.455	596.31
448.675	704.31
448.896	779.31
449.117	674.31
449.338	627.31
449.559	740.31
449.779	826.31
450	698.31
450.221	581.31
450.442	507.31
450.662	510.31
450.883	518.31
451.104	504.31
451.324	475.31
451.545	478.31
451.766	466.31
451.986	445.31
452.207	445.31
452.428	440.31
452.648	440.31
452.869	451.31
453.089	448.31
453.31	455.31
453.53	444.31
453.751	448.31
453.971	446.31
454.192	464.31
454.412	446.31
454.633	437.31
454.853	410.31
455.073	426.31
455.294	461.31
455.514	530.31
455.734	540.31
455.955	436.31
456.175	402.31
456.395	420.31
456.616	403.31
456.836	411.31
457.056	400.31
457.276	387.31
457.497	424.31
457.717	412.31
457.937	416.31
458.157	405.31
458.377	420.31
458.598	435.31
458.818	528.31
459.038	618.31
459.258	638.31
459.478	512.31
459.698	468.31
459.918	466.31
460.138	428.31
460.358	445.31
460.578	447.31
460.798	445.31
461.018	461.31
461.238	441.31
461.458	457.31
461.678	438.31
461.898	458.31
462.118	458.31
462.338	463.31
462.558	471.31
462.777	469.31
462.997	465.31
463.217	477.31
463.437	483.31
463.657	500.31
463.876	482.31
464.096	476.31
464.316	468.31
464.536	474.31
464.755	490.31
464.975	494.31
465.195	547.31
465.414	616.31
465.634	554.31
465.854	494.31
466.073	464.31
466.293	457.31
466.512	436.31
466.732	437.31
466.951	424.31
467.171	454.31
467.391	434.31
467.61	429.31
467.829	442.31
468.049	452.31
468.268	438.31
468.488	414.31
468.707	408.31
468.927	418.31
469.146	425.31
469.365	430.31
469.585	425.31
469.804	445.31
470.023	435.31
470.243	451.31
470.462	482.31
470.681	451.31
470.901	453.31
471.12	456.31
471.339	442.31
471.558	465.31
471.777	470.31
471.997	445.31
472.216	421.31
472.435	398.31
472.654	458.31
472.873	434.31
473.092	416.31
473.311	446.31
473.53	438.31
473.749	438.31
473.968	488.31
474.187	608.31
474.406	625.31
474.625	517.31
474.844	475.31
475.063	468.31
475.282	436.31
475.501	447.31
475.72	470.31
475.939	468.31
476.158	454.31
476.377	442.31
476.596	465.31
476.814	468.31
477.033	453.31
477.252	469.31
477.471	471.31
477.69	474.31
477.908	481.31
478.127	484.31
478.346	470.31
478.564	475.31
478.783	486.31
479.002	490.31
479.22	507.31
479.439	503.31
479.658	526.31
479.876	520.31
480.095	525.31
480.313	560.31
480.532	552.31
480.751	522.31
480.969	528.31
481.188	551.31
481.406	578.31
481.624	550.31
481.843	520.31
482.061	531.31
482.28	540.31
482.498	510.31
482.717	524.31
482.935	549.31
483.153	519.31
483.372	503.31
483.59	534.31
483.808	529.31
484.027	529.31
484.245	530.31
484.463	525.31
484.681	543.31
484.9	515.31
485.118	534.31
485.336	526.31
485.554	529.31
485.772	521.31
485.99	542.31
486.209	569.31
486.427	535.31
486.645	556.31
486.863	583.31
487.081	576.31
487.299	579.31
487.517	564.31
487.735	546.31
487.953	553.31
488.171	570.31
488.389	550.31
488.607	568.31
488.825	568.31
489.043	585.31
489.261	570.31
489.479	574.31
489.696	586.31
489.914	567.31
490.132	609.31
490.35	570.31
490.568	605.31
490.786	620.31
491.003	611.31
491.221	622.31
491.439	644.31
491.657	645.31
491.874	625.31
492.092	627.31
492.31	634.31
492.527	656.31
492.745	659.31
492.963	639.31
493.18	656.31
493.398	660.31
493.615	653.31
493.833	654.31
494.05	664.31
494.268	664.31
494.485	680.31
494.703	638.31
494.92	685.31
495.138	661.31
495.355	674.31
495.573	699.31
495.79	680.31
496.008	657.31
496.225	640.31
496.442	663.31
496.66	663.31
496.877	659.31
497.094	668.31
497.312	669.31
497.529	705.31
497.746	677.31
497.963	694.31
498.181	752.31
498.398	738.31
498.615	730.31
498.832	733.31
499.049	753.31
499.267	745.31
499.484	773.31
499.701	791.31
499.918	821.31
500.135	850.31
500.352	864.31
500.569	875.31
500.786	850.31
501.003	876.31
501.22	838.31
501.437	824.31
501.654	836.31
501.871	839.31
