Data from 1989.PennyLincolnUp.Lamp.En5.5.200Scan.071819.P2_HRD10591_17-23-21-972.txt Node
Date: Thu Jul 18 17:23:21 EDT 2019
User: cochatt
Spectrometer: HR+D1059
Trigger mode: 1
Integration Time (sec): 1.000000E-1
Scans to average: 1
Electric dark correction enabled: true
Nonlinearity correction enabled: false
Boxcar width: 0
XAxis mode: Wavelengths
Number of Pixels in Spectrum: 2048
>>>>>Begin Spectral Data<<<<<
223.165	-17.12
223.4	-17.12
223.635	-17.12
223.869	-11.12
224.104	-2.12
224.338	-10.12
224.573	-19.12
224.808	-12.12
225.042	-3.12
225.277	-20.12
225.511	4.88
225.746	-2.12
225.98	1.88
226.215	10.88
226.449	13.88
226.683	26.88
226.918	7.88
227.152	30.88
227.387	30.88
227.621	41.88
227.856	45.88
228.09	36.88
228.324	37.88
228.559	55.88
228.793	71.88
229.027	80.88
229.262	109.88
229.496	96.88
229.73	114.88
229.964	130.88
230.199	123.88
230.433	96.88
230.667	94.88
230.901	91.88
231.136	103.88
231.37	106.88
231.604	109.88
231.838	104.88
232.072	100.88
232.306	117.88
232.541	116.88
232.775	108.88
233.009	91.88
233.243	101.88
233.477	123.88
233.711	109.88
233.945	97.88
234.179	122.88
234.413	110.88
234.647	106.88
234.881	119.88
235.115	115.88
235.349	110.88
235.583	111.88
235.817	119.88
236.051	121.88
236.285	115.88
236.519	113.88
236.753	114.88
236.987	123.88
237.221	153.88
237.455	202.88
237.689	164.88
237.922	140.88
238.156	137.88
238.39	129.88
238.624	125.88
238.858	125.88
239.091	136.88
239.325	102.88
239.559	127.88
239.793	108.88
240.027	120.88
240.26	136.88
240.494	158.88
240.728	156.88
240.961	151.88
241.195	121.88
241.429	120.88
241.662	114.88
241.896	109.88
242.13	122.88
242.363	124.88
242.597	125.88
242.83	123.88
243.064	139.88
243.298	129.88
243.531	132.88
243.765	125.88
243.998	130.88
244.232	131.88
244.465	151.88
244.699	124.88
244.932	129.88
245.166	130.88
245.399	140.88
245.633	146.88
245.866	133.88
246.099	141.88
246.333	129.88
246.566	148.88
246.8	132.88
247.033	150.88
247.266	162.88
247.5	156.88
247.733	172.88
247.966	153.88
248.2	171.88
248.433	155.88
248.666	139.88
248.899	195.88
249.133	181.88
249.366	191.88
249.599	190.88
249.832	173.88
250.066	164.88
250.299	175.88
250.532	178.88
250.765	188.88
250.998	193.88
251.231	203.88
251.465	208.88
251.698	197.88
251.931	190.88
252.164	170.88
252.397	197.88
252.63	194.88
252.863	204.88
253.096	191.88
253.329	208.88
253.562	221.88
253.795	220.88
254.028	204.88
254.261	198.88
254.494	218.88
254.727	237.88
254.96	264.88
255.193	257.88
255.426	219.88
255.659	209.88
255.892	204.88
256.124	220.88
256.357	201.88
256.59	201.88
256.823	203.88
257.056	201.88
257.289	200.88
257.521	201.88
257.754	194.88
257.987	213.88
258.22	205.88
258.452	208.88
258.685	203.88
258.918	210.88
259.151	193.88
259.383	187.88
259.616	216.88
259.849	224.88
260.081	214.88
260.314	239.88
260.547	227.88
260.779	228.88
261.012	232.88
261.244	212.88
261.477	213.88
261.71	218.88
261.942	218.88
262.175	218.88
262.407	216.88
262.64	217.88
262.872	206.88
263.105	207.88
263.337	198.88
263.57	203.88
263.802	198.88
264.035	216.88
264.267	208.88
264.499	212.88
264.732	217.88
264.964	216.88
265.197	209.88
265.429	202.88
265.661	201.88
265.894	207.88
266.126	221.88
266.358	225.88
266.591	214.88
266.823	213.88
267.055	212.88
267.287	199.88
267.52	210.88
267.752	210.88
267.984	218.88
268.216	211.88
268.448	224.88
268.681	213.88
268.913	229.88
269.145	258.88
269.377	242.88
269.609	246.88
269.841	228.88
270.073	248.88
270.306	258.88
270.538	290.88
270.77	296.88
271.002	286.88
271.234	265.88
271.466	288.88
271.698	294.88
271.93	285.88
272.162	286.88
272.394	297.88
272.626	270.88
272.858	269.88
273.09	257.88
273.322	259.88
273.553	249.88
273.785	248.88
274.017	259.88
274.249	243.88
274.481	255.88
274.713	254.88
274.945	263.88
275.176	256.88
275.408	261.88
275.64	254.88
275.872	244.88
276.104	263.88
276.335	268.88
276.567	253.88
276.799	258.88
277.031	271.88
277.262	276.88
277.494	296.88
277.726	301.88
277.957	280.88
278.189	264.88
278.421	269.88
278.652	254.88
278.884	254.88
279.115	221.88
279.347	240.88
279.579	254.88
279.81	241.88
280.042	243.88
280.273	258.88
280.505	250.88
280.736	246.88
280.968	243.88
281.199	248.88
281.431	233.88
281.662	240.88
281.894	242.88
282.125	255.88
282.356	275.88
282.588	289.88
282.819	266.88
283.051	242.88
283.282	264.88
283.513	248.88
283.745	258.88
283.976	260.88
284.207	253.88
284.439	267.88
284.67	262.88
284.901	262.88
285.132	263.88
285.364	259.88
285.595	270.88
285.826	260.88
286.057	261.88
286.288	260.88
286.52	233.88
286.751	250.88
286.982	257.88
287.213	257.88
287.444	285.88
287.675	253.88
287.906	275.88
288.138	281.88
288.369	281.88
288.6	277.88
288.831	267.88
289.062	276.88
289.293	281.88
289.524	284.88
289.755	291.88
289.986	268.88
290.217	275.88
290.448	264.88
290.679	265.88
290.91	285.88
291.141	266.88
291.371	280.88
291.602	262.88
291.833	268.88
292.064	257.88
292.295	262.88
292.526	259.88
292.757	273.88
292.987	270.88
293.218	261.88
293.449	274.88
293.68	276.88
293.91	276.88
294.141	284.88
294.372	273.88
294.603	280.88
294.833	276.88
295.064	279.88
295.295	287.88
295.525	281.88
295.756	278.88
295.987	284.88
296.217	308.88
296.448	290.88
296.679	279.88
296.909	280.88
297.14	288.88
297.37	289.88
297.601	266.88
297.831	276.88
298.062	271.88
298.292	288.88
298.523	283.88
298.753	293.88
298.984	297.88
299.214	280.88
299.445	277.88
299.675	276.88
299.905	296.88
300.136	280.88
300.366	284.88
300.597	287.88
300.827	279.88
301.057	289.88
301.288	290.88
301.518	290.88
301.748	308.88
301.979	286.88
302.209	301.88
302.439	322.88
302.669	283.88
302.9	284.88
303.13	308.88
303.36	297.88
303.59	325.88
303.82	301.88
304.051	318.88
304.281	293.88
304.511	296.88
304.741	304.88
304.971	312.88
305.201	310.88
305.431	306.88
305.661	312.88
305.891	306.88
306.121	326.88
306.352	303.88
306.582	306.88
306.812	314.88
307.042	317.88
307.272	300.88
307.502	316.88
307.731	316.88
307.961	315.88
308.191	311.88
308.421	305.88
308.651	304.88
308.881	324.88
309.111	323.88
309.341	324.88
309.571	306.88
309.8	325.88
310.03	335.88
310.26	346.88
310.49	334.88
310.72	350.88
310.949	362.88
311.179	355.88
311.409	341.88
311.639	328.88
311.868	344.88
312.098	329.88
312.328	355.88
312.557	361.88
312.787	361.88
313.017	360.88
313.246	362.88
313.476	357.88
313.706	341.88
313.935	335.88
314.165	346.88
314.394	357.88
314.624	342.88
314.853	332.88
315.083	345.88
315.312	360.88
315.542	347.88
315.771	338.88
316.001	334.88
316.23	345.88
316.46	320.88
316.689	357.88
316.919	356.88
317.148	366.88
317.377	345.88
317.607	337.88
317.836	358.88
318.065	352.88
318.295	328.88
318.524	320.88
318.753	358.88
318.983	350.88
319.212	345.88
319.441	355.88
319.67	356.88
319.9	340.88
320.129	350.88
320.358	357.88
320.587	347.88
320.816	370.88
321.046	363.88
321.275	388.88
321.504	353.88
321.733	364.88
321.962	376.88
322.191	368.88
322.42	380.88
322.649	384.88
322.878	410.88
323.108	394.88
323.337	407.88
323.566	441.88
323.795	463.88
324.024	488.88
324.253	597.88
324.482	765.88
324.71	1193.88
324.939	1757.88
325.168	1539.88
325.397	798.88
325.626	537.88
325.855	477.88
326.084	424.88
326.313	426.88
326.542	442.88
326.77	472.88
326.999	541.88
327.228	748.88
327.457	1080.88
327.686	1306.88
327.914	874.88
328.143	592.88
328.372	497.88
328.6	473.88
328.829	467.88
329.058	501.88
329.287	494.88
329.515	432.88
329.744	438.88
329.972	427.88
330.201	433.88
330.43	446.88
330.658	481.88
330.887	506.88
331.115	494.88
331.344	445.88
331.572	403.88
331.801	423.88
332.03	396.88
332.258	399.88
332.486	407.88
332.715	381.88
332.943	415.88
333.172	384.88
333.4	380.88
333.629	394.88
333.857	412.88
334.085	402.88
334.314	424.88
334.542	419.88
334.771	416.88
334.999	405.88
335.227	410.88
335.455	397.88
335.684	394.88
335.912	395.88
336.14	393.88
336.369	416.88
336.597	408.88
336.825	402.88
337.053	394.88
337.281	402.88
337.51	384.88
337.738	390.88
337.966	403.88
338.194	392.88
338.422	378.88
338.65	373.88
338.878	399.88
339.106	364.88
339.334	400.88
339.562	384.88
339.79	394.88
340.018	392.88
340.246	372.88
340.474	386.88
340.702	386.88
340.93	382.88
341.158	380.88
341.386	381.88
341.614	393.88
341.842	393.88
342.07	383.88
342.298	372.88
342.526	389.88
342.754	358.88
342.981	364.88
343.209	353.88
343.437	396.88
343.665	370.88
343.893	389.88
344.12	397.88
344.348	386.88
344.576	380.88
344.804	374.88
345.031	379.88
345.259	413.88
345.487	384.88
345.714	385.88
345.942	357.88
346.17	392.88
346.397	388.88
346.625	374.88
346.853	359.88
347.08	378.88
347.308	368.88
347.535	367.88
347.763	370.88
347.99	380.88
348.218	378.88
348.445	380.88
348.673	384.88
348.9	369.88
349.128	369.88
349.355	371.88
349.583	378.88
349.81	362.88
350.037	361.88
350.265	355.88
350.492	347.88
350.72	374.88
350.947	388.88
351.174	360.88
351.402	374.88
351.629	377.88
351.856	364.88
352.083	380.88
352.311	353.88
352.538	388.88
352.765	397.88
352.992	368.88
353.22	346.88
353.447	368.88
353.674	359.88
353.901	362.88
354.128	345.88
354.355	345.88
354.583	354.88
354.81	349.88
355.037	338.88
355.264	359.88
355.491	349.88
355.718	344.88
355.945	366.88
356.172	349.88
356.399	347.88
356.626	334.88
356.853	346.88
357.08	340.88
357.307	368.88
357.534	352.88
357.761	350.88
357.988	339.88
358.215	335.88
358.441	342.88
358.668	362.88
358.895	356.88
359.122	357.88
359.349	390.88
359.576	365.88
359.802	377.88
360.029	382.88
360.256	399.88
360.483	400.88
360.709	357.88
360.936	378.88
361.163	368.88
361.39	356.88
361.616	361.88
361.843	355.88
362.07	357.88
362.296	353.88
362.523	365.88
362.749	371.88
362.976	344.88
363.203	364.88
363.429	374.88
363.656	345.88
363.882	366.88
364.109	351.88
364.335	336.88
364.562	344.88
364.788	352.88
365.015	344.88
365.241	354.88
365.468	358.88
365.694	344.88
365.92	363.88
366.147	344.88
366.373	340.88
366.599	357.88
366.826	346.88
367.052	345.88
367.278	332.88
367.505	350.88
367.731	358.88
367.957	353.88
368.184	355.88
368.41	355.88
368.636	356.88
368.862	363.88
369.089	375.88
369.315	359.88
369.541	341.88
369.767	336.88
369.993	356.88
370.219	356.88
370.445	343.88
370.672	356.88
370.898	346.88
371.124	339.88
371.35	357.88
371.576	334.88
371.802	358.88
372.028	342.88
372.254	351.88
372.48	353.88
372.706	361.88
372.932	362.88
373.158	359.88
373.384	358.88
373.61	356.88
373.835	341.88
374.061	338.88
374.287	350.88
374.513	348.88
374.739	348.88
374.965	343.88
375.191	350.88
375.416	366.88
375.642	360.88
375.868	365.88
376.094	337.88
376.319	360.88
376.545	348.88
376.771	356.88
376.997	352.88
377.222	350.88
377.448	357.88
377.674	342.88
377.899	346.88
378.125	365.88
378.35	343.88
378.576	331.88
378.802	348.88
379.027	336.88
379.253	328.88
379.478	345.88
379.704	338.88
379.929	337.88
380.155	350.88
380.38	347.88
380.606	352.88
380.831	336.88
381.057	360.88
381.282	355.88
381.507	336.88
381.733	357.88
381.958	347.88
382.184	355.88
382.409	358.88
382.634	357.88
382.86	351.88
383.085	377.88
383.31	362.88
383.535	365.88
383.761	341.88
383.986	360.88
384.211	363.88
384.436	361.88
384.662	355.88
384.887	370.88
385.112	376.88
385.337	376.88
385.562	377.88
385.787	372.88
386.013	353.88
386.238	376.88
386.463	378.88
386.688	377.88
386.913	368.88
387.138	378.88
387.363	369.88
387.588	394.88
387.813	388.88
388.038	385.88
388.263	381.88
388.488	361.88
388.713	376.88
388.938	385.88
389.163	367.88
389.387	373.88
389.612	364.88
389.837	372.88
390.062	381.88
390.287	370.88
390.512	373.88
390.736	357.88
390.961	368.88
391.186	353.88
391.411	365.88
391.636	358.88
391.86	372.88
392.085	380.88
392.31	387.88
392.534	375.88
392.759	386.88
392.984	382.88
393.208	382.88
393.433	387.88
393.658	378.88
393.882	378.88
394.107	367.88
394.331	376.88
394.556	358.88
394.78	373.88
395.005	387.88
395.229	370.88
395.454	380.88
395.678	381.88
395.903	407.88
396.127	407.88
396.352	429.88
396.576	388.88
396.801	392.88
397.025	382.88
397.249	388.88
397.474	394.88
397.698	394.88
397.922	391.88
398.147	406.88
398.371	408.88
398.595	394.88
398.82	429.88
399.044	433.88
399.268	418.88
399.492	469.88
399.717	459.88
399.941	476.88
400.165	513.88
400.389	509.88
400.613	470.88
400.837	426.88
401.062	432.88
401.286	438.88
401.51	436.88
401.734	424.88
401.958	424.88
402.182	407.88
402.406	412.88
402.63	433.88
402.854	420.88
403.078	402.88
403.302	413.88
403.526	444.88
403.75	430.88
403.974	435.88
404.198	415.88
404.422	419.88
404.645	447.88
404.869	424.88
405.093	454.88
405.317	450.88
405.541	454.88
405.765	460.88
405.988	441.88
406.212	452.88
406.436	460.88
406.66	494.88
406.883	456.88
407.107	487.88
407.331	513.88
407.555	556.88
407.778	560.88
408.002	492.88
408.226	506.88
408.449	485.88
408.673	492.88
408.896	499.88
409.12	540.88
409.344	508.88
409.567	435.88
409.791	425.88
410.014	438.88
410.238	443.88
410.461	446.88
410.685	442.88
410.908	440.88
411.132	491.88
411.355	471.88
411.578	473.88
411.802	438.88
412.025	433.88
412.249	420.88
412.472	432.88
412.695	425.88
412.919	435.88
413.142	420.88
413.365	394.88
413.589	413.88
413.812	421.88
414.035	407.88
414.258	416.88
414.482	414.88
414.705	411.88
414.928	404.88
415.151	409.88
415.374	406.88
415.597	403.88
415.821	386.88
416.044	386.88
416.267	408.88
416.49	396.88
416.713	414.88
416.936	400.88
417.159	384.88
417.382	417.88
417.605	414.88
417.828	407.88
418.051	418.88
418.274	413.88
418.497	411.88
418.72	412.88
418.943	404.88
419.166	402.88
419.389	428.88
419.611	428.88
419.834	409.88
420.057	428.88
420.28	427.88
420.503	406.88
420.726	408.88
420.948	420.88
421.171	466.88
421.394	484.88
421.617	458.88
421.839	436.88
422.062	462.88
422.285	451.88
422.507	489.88
422.73	535.88
422.953	521.88
423.175	457.88
423.398	441.88
423.621	440.88
423.843	445.88
424.066	453.88
424.288	467.88
424.511	470.88
424.733	517.88
424.956	586.88
425.178	553.88
425.401	564.88
425.623	562.88
425.846	515.88
426.068	448.88
426.291	448.88
426.513	459.88
426.735	459.88
426.958	493.88
427.18	550.88
427.402	676.88
427.625	753.88
427.847	609.88
428.069	548.88
428.292	473.88
428.514	458.88
428.736	411.88
428.958	440.88
429.181	427.88
429.403	414.88
429.625	428.88
429.847	472.88
430.069	515.88
430.292	497.88
430.514	448.88
430.736	432.88
430.958	410.88
431.18	409.88
431.402	406.88
431.624	399.88
431.846	377.88
432.068	416.88
432.29	404.88
432.512	375.88
432.734	406.88
432.956	398.88
433.178	416.88
433.4	418.88
433.622	386.88
433.844	406.88
434.066	395.88
434.287	389.88
434.509	393.88
434.731	428.88
434.953	427.88
435.175	416.88
435.397	430.88
435.618	445.88
435.84	456.88
436.062	552.88
436.284	620.88
436.505	525.88
436.727	472.88
436.949	440.88
437.17	440.88
437.392	419.88
437.614	426.88
437.835	458.88
438.057	517.88
438.278	639.88
438.5	633.88
438.721	683.88
438.943	658.88
439.165	521.88
439.386	478.88
439.608	476.88
439.829	452.88
440.05	468.88
440.272	528.88
440.493	492.88
440.715	432.88
440.936	446.88
441.158	420.88
441.379	426.88
441.6	434.88
441.822	445.88
442.043	472.88
442.264	557.88
442.486	580.88
442.707	501.88
442.928	464.88
443.149	460.88
443.371	486.88
443.592	506.88
443.813	579.88
444.034	672.88
444.255	542.88
444.476	473.88
444.698	459.88
444.919	448.88
445.14	532.88
445.361	489.88
445.582	480.88
445.803	530.88
446.024	615.88
446.245	636.88
446.466	582.88
446.687	496.88
446.908	460.88
447.129	438.88
447.35	422.88
447.571	428.88
447.792	404.88
448.013	420.88
448.234	441.88
448.455	482.88
448.675	578.88
448.896	681.88
449.117	561.88
449.338	506.88
449.559	621.88
449.779	717.88
450	586.88
450.221	473.88
450.442	420.88
450.662	418.88
450.883	413.88
451.104	408.88
451.324	394.88
451.545	413.88
451.766	400.88
451.986	367.88
452.207	378.88
452.428	363.88
452.648	359.88
452.869	361.88
453.089	406.88
453.31	406.88
453.53	378.88
453.751	376.88
453.971	357.88
454.192	392.88
454.412	388.88
454.633	364.88
454.853	370.88
455.073	358.88
455.294	385.88
455.514	467.88
455.734	424.88
455.955	345.88
456.175	378.88
456.395	362.88
456.616	360.88
456.836	341.88
457.056	361.88
457.276	351.88
457.497	353.88
457.717	368.88
457.937	359.88
458.157	366.88
458.377	361.88
458.598	382.88
458.818	422.88
459.038	475.88
459.258	500.88
459.478	437.88
459.698	401.88
459.918	416.88
460.138	402.88
460.358	383.88
460.578	415.88
460.798	399.88
461.018	406.88
461.238	406.88
461.458	421.88
461.678	396.88
461.898	398.88
462.118	408.88
462.338	417.88
462.558	415.88
462.777	423.88
462.997	430.88
463.217	420.88
463.437	432.88
463.657	440.88
463.876	421.88
464.096	435.88
464.316	413.88
464.536	413.88
464.755	417.88
464.975	426.88
465.195	429.88
465.414	498.88
465.634	457.88
465.854	419.88
466.073	404.88
466.293	397.88
466.512	392.88
466.732	372.88
466.951	379.88
467.171	365.88
467.391	388.88
467.61	382.88
467.829	389.88
468.049	372.88
468.268	374.88
468.488	379.88
468.707	370.88
468.927	375.88
469.146	374.88
469.365	369.88
469.585	376.88
469.804	389.88
470.023	404.88
470.243	381.88
470.462	386.88
470.681	418.88
470.901	390.88
471.12	368.88
471.339	385.88
471.558	394.88
471.777	386.88
471.997	397.88
472.216	377.88
472.435	380.88
472.654	396.88
472.873	371.88
473.092	381.88
473.311	388.88
473.53	387.88
473.749	396.88
473.968	442.88
474.187	503.88
474.406	540.88
474.625	447.88
474.844	442.88
475.063	403.88
475.282	394.88
475.501	374.88
475.72	400.88
475.939	408.88
476.158	393.88
476.377	400.88
476.596	418.88
476.814	427.88
477.033	423.88
477.252	410.88
477.471	397.88
477.69	424.88
477.908	423.88
478.127	425.88
478.346	422.88
478.564	427.88
478.783	422.88
479.002	446.88
479.22	441.88
479.439	465.88
479.658	455.88
479.876	473.88
480.095	457.88
480.313	504.88
480.532	469.88
480.751	456.88
480.969	468.88
481.188	474.88
481.406	476.88
481.624	444.88
481.843	457.88
482.061	458.88
482.28	469.88
482.498	446.88
482.717	459.88
482.935	454.88
483.153	465.88
483.372	444.88
483.59	448.88
483.808	429.88
484.027	444.88
484.245	459.88
484.463	459.88
484.681	474.88
484.9	457.88
485.118	462.88
485.336	451.88
485.554	481.88
485.772	459.88
485.99	462.88
486.209	465.88
486.427	486.88
486.645	469.88
486.863	469.88
487.081	499.88
487.299	492.88
487.517	485.88
487.735	484.88
487.953	473.88
488.171	492.88
488.389	492.88
488.607	489.88
488.825	489.88
489.043	488.88
489.261	506.88
489.479	494.88
489.696	484.88
489.914	496.88
490.132	516.88
490.35	498.88
490.568	494.88
490.786	522.88
491.003	509.88
491.221	540.88
491.439	542.88
491.657	527.88
491.874	537.88
492.092	536.88
492.31	546.88
492.527	542.88
492.745	560.88
492.963	549.88
493.18	548.88
493.398	556.88
493.615	565.88
493.833	552.88
494.05	582.88
494.268	554.88
494.485	578.88
494.703	546.88
494.92	559.88
495.138	549.88
495.355	556.88
495.573	557.88
495.79	572.88
496.008	576.88
496.225	566.88
496.442	576.88
496.66	588.88
496.877	552.88
497.094	546.88
497.312	582.88
497.529	594.88
497.746	576.88
497.963	606.88
498.181	599.88
498.398	639.88
498.615	614.88
498.832	621.88
499.049	644.88
499.267	650.88
499.484	700.88
499.701	704.88
499.918	710.88
500.135	724.88
500.352	730.88
500.569	792.88
500.786	792.88
501.003	760.88
501.22	743.88
501.437	728.88
501.654	705.88
501.871	710.88
502.088	682.88
