Data from 1989.PennyLincolnUp.Lamp.En5.5.200Scan.071819.P2_HRD10591_17-23-54-972.txt Node
Date: Thu Jul 18 17:23:54 EDT 2019
User: cochatt
Spectrometer: HR+D1059
Trigger mode: 1
Integration Time (sec): 1.000000E-1
Scans to average: 1
Electric dark correction enabled: true
Nonlinearity correction enabled: false
Boxcar width: 0
XAxis mode: Wavelengths
Number of Pixels in Spectrum: 2048
>>>>>Begin Spectral Data<<<<<
223.165	-18.25
223.4	-18.25
223.635	-18.25
223.869	-9.25
224.104	-19.25
224.338	-14.25
224.573	-10.25
224.808	-18.25
225.042	-19.25
225.277	-7.25
225.511	9.75
225.746	10.75
225.98	-0.25
226.215	21.75
226.449	11.75
226.683	9.75
226.918	13.75
227.152	38.75
227.387	29.75
227.621	35.75
227.856	37.75
228.09	49.75
228.324	58.75
228.559	65.75
228.793	55.75
229.027	87.75
229.262	105.75
229.496	118.75
229.73	131.75
229.964	157.75
230.199	115.75
230.433	111.75
230.667	115.75
230.901	118.75
231.136	113.75
231.37	103.75
231.604	103.75
231.838	113.75
232.072	105.75
232.306	117.75
232.541	122.75
232.775	100.75
233.009	101.75
233.243	121.75
233.477	120.75
233.711	131.75
233.945	113.75
234.179	114.75
234.413	133.75
234.647	124.75
234.881	123.75
235.115	123.75
235.349	116.75
235.583	107.75
235.817	123.75
236.051	116.75
236.285	145.75
236.519	140.75
236.753	139.75
236.987	136.75
237.221	182.75
237.455	241.75
237.689	185.75
237.922	141.75
238.156	122.75
238.39	129.75
238.624	116.75
238.858	131.75
239.091	126.75
239.325	121.75
239.559	125.75
239.793	131.75
240.027	136.75
240.26	141.75
240.494	155.75
240.728	151.75
240.961	152.75
241.195	125.75
241.429	147.75
241.662	145.75
241.896	141.75
242.13	126.75
242.363	126.75
242.597	125.75
242.83	143.75
243.064	143.75
243.298	137.75
243.531	129.75
243.765	150.75
243.998	147.75
244.232	154.75
244.465	155.75
244.699	159.75
244.932	145.75
245.166	152.75
245.399	143.75
245.633	148.75
245.866	159.75
246.099	147.75
246.333	135.75
246.566	156.75
246.8	161.75
247.033	168.75
247.266	171.75
247.5	158.75
247.733	177.75
247.966	175.75
248.2	163.75
248.433	189.75
248.666	181.75
248.899	201.75
249.133	207.75
249.366	204.75
249.599	196.75
249.832	195.75
250.066	203.75
250.299	194.75
250.532	196.75
250.765	205.75
250.998	204.75
251.231	264.75
251.465	229.75
251.698	199.75
251.931	219.75
252.164	223.75
252.397	192.75
252.63	222.75
252.863	214.75
253.096	229.75
253.329	234.75
253.562	246.75
253.795	244.75
254.028	222.75
254.261	223.75
254.494	232.75
254.727	284.75
254.96	310.75
255.193	291.75
255.426	261.75
255.659	257.75
255.892	232.75
256.124	225.75
256.357	221.75
256.59	229.75
256.823	235.75
257.056	220.75
257.289	217.75
257.521	225.75
257.754	215.75
257.987	218.75
258.22	215.75
258.452	229.75
258.685	220.75
258.918	219.75
259.151	198.75
259.383	236.75
259.616	236.75
259.849	223.75
260.081	251.75
260.314	261.75
260.547	263.75
260.779	253.75
261.012	248.75
261.244	245.75
261.477	259.75
261.71	232.75
261.942	229.75
262.175	253.75
262.407	259.75
262.64	214.75
262.872	252.75
263.105	230.75
263.337	216.75
263.57	220.75
263.802	219.75
264.035	233.75
264.267	213.75
264.499	218.75
264.732	224.75
264.964	216.75
265.197	217.75
265.429	222.75
265.661	215.75
265.894	213.75
266.126	219.75
266.358	231.75
266.591	225.75
266.823	241.75
267.055	225.75
267.287	228.75
267.52	229.75
267.752	236.75
267.984	241.75
268.216	241.75
268.448	229.75
268.681	248.75
268.913	257.75
269.145	263.75
269.377	299.75
269.609	267.75
269.841	284.75
270.073	282.75
270.306	314.75
270.538	315.75
270.77	341.75
271.002	328.75
271.234	323.75
271.466	328.75
271.698	325.75
271.93	329.75
272.162	344.75
272.394	335.75
272.626	315.75
272.858	299.75
273.09	296.75
273.322	281.75
273.553	280.75
273.785	284.75
274.017	270.75
274.249	303.75
274.481	280.75
274.713	288.75
274.945	287.75
275.176	292.75
275.408	260.75
275.64	280.75
275.872	271.75
276.104	266.75
276.335	271.75
276.567	293.75
276.799	293.75
277.031	307.75
277.262	333.75
277.494	339.75
277.726	313.75
277.957	309.75
278.189	281.75
278.421	284.75
278.652	285.75
278.884	285.75
279.115	281.75
279.347	279.75
279.579	266.75
279.81	278.75
280.042	269.75
280.273	267.75
280.505	287.75
280.736	279.75
280.968	284.75
281.199	281.75
281.431	267.75
281.662	276.75
281.894	298.75
282.125	263.75
282.356	307.75
282.588	321.75
282.819	314.75
283.051	297.75
283.282	289.75
283.513	278.75
283.745	278.75
283.976	281.75
284.207	275.75
284.439	283.75
284.67	293.75
284.901	283.75
285.132	303.75
285.364	295.75
285.595	288.75
285.826	313.75
286.057	300.75
286.288	309.75
286.52	296.75
286.751	299.75
286.982	303.75
287.213	303.75
287.444	299.75
287.675	316.75
287.906	308.75
288.138	299.75
288.369	327.75
288.6	304.75
288.831	300.75
289.062	313.75
289.293	301.75
289.524	287.75
289.755	283.75
289.986	299.75
290.217	301.75
290.448	309.75
290.679	308.75
290.91	281.75
291.141	324.75
291.371	275.75
291.602	305.75
291.833	306.75
292.064	312.75
292.295	299.75
292.526	290.75
292.757	295.75
292.987	299.75
293.218	299.75
293.449	291.75
293.68	289.75
293.91	311.75
294.141	291.75
294.372	307.75
294.603	298.75
294.833	307.75
295.064	293.75
295.295	289.75
295.525	311.75
295.756	292.75
295.987	307.75
296.217	343.75
296.448	356.75
296.679	317.75
296.909	304.75
297.14	310.75
297.37	318.75
297.601	298.75
297.831	311.75
298.062	296.75
298.292	297.75
298.523	299.75
298.753	307.75
298.984	311.75
299.214	313.75
299.445	314.75
299.675	310.75
299.905	318.75
300.136	335.75
300.366	317.75
300.597	311.75
300.827	311.75
301.057	329.75
301.288	344.75
301.518	336.75
301.748	330.75
301.979	344.75
302.209	344.75
302.439	337.75
302.669	328.75
302.9	332.75
303.13	336.75
303.36	357.75
303.59	354.75
303.82	364.75
304.051	345.75
304.281	351.75
304.511	341.75
304.741	326.75
304.971	326.75
305.201	320.75
305.431	347.75
305.661	351.75
305.891	332.75
306.121	336.75
306.352	349.75
306.582	332.75
306.812	347.75
307.042	348.75
307.272	337.75
307.502	327.75
307.731	340.75
307.961	349.75
308.191	360.75
308.421	344.75
308.651	331.75
308.881	364.75
309.111	334.75
309.341	376.75
309.571	379.75
309.8	374.75
310.03	383.75
310.26	392.75
310.49	377.75
310.72	396.75
310.949	407.75
311.179	404.75
311.409	376.75
311.639	374.75
311.868	383.75
312.098	409.75
312.328	402.75
312.557	407.75
312.787	436.75
313.017	433.75
313.246	415.75
313.476	387.75
313.706	394.75
313.935	403.75
314.165	404.75
314.394	411.75
314.624	415.75
314.853	399.75
315.083	407.75
315.312	400.75
315.542	383.75
315.771	408.75
316.001	373.75
316.23	398.75
316.46	403.75
316.689	380.75
316.919	403.75
317.148	408.75
317.377	408.75
317.607	397.75
317.836	374.75
318.065	384.75
318.295	403.75
318.524	415.75
318.753	397.75
318.983	380.75
319.212	380.75
319.441	395.75
319.67	394.75
319.9	385.75
320.129	395.75
320.358	393.75
320.587	377.75
320.816	398.75
321.046	413.75
321.275	408.75
321.504	428.75
321.733	419.75
321.962	420.75
322.191	447.75
322.42	455.75
322.649	473.75
322.878	466.75
323.108	467.75
323.337	519.75
323.566	523.75
323.795	555.75
324.024	630.75
324.253	748.75
324.482	1076.75
324.71	1611.75
324.939	2331.75
325.168	2064.75
325.397	1047.75
325.626	723.75
325.855	590.75
326.084	550.75
326.313	536.75
326.542	516.75
326.77	584.75
326.999	691.75
327.228	937.75
327.457	1455.75
327.686	1736.75
327.914	1154.75
328.143	760.75
328.372	673.75
328.6	617.75
328.829	593.75
329.058	601.75
329.287	609.75
329.515	548.75
329.744	513.75
329.972	520.75
330.201	494.75
330.43	553.75
330.658	574.75
330.887	646.75
331.115	619.75
331.344	549.75
331.572	492.75
331.801	501.75
332.03	492.75
332.258	478.75
332.486	470.75
332.715	453.75
332.943	468.75
333.172	451.75
333.4	445.75
333.629	443.75
333.857	482.75
334.085	458.75
334.314	454.75
334.542	440.75
334.771	476.75
334.999	450.75
335.227	459.75
335.455	457.75
335.684	455.75
335.912	438.75
336.14	447.75
336.369	442.75
336.597	454.75
336.825	452.75
337.053	441.75
337.281	433.75
337.51	429.75
337.738	435.75
337.966	454.75
338.194	449.75
338.422	443.75
338.65	447.75
338.878	403.75
339.106	418.75
339.334	421.75
339.562	435.75
339.79	417.75
340.018	431.75
340.246	429.75
340.474	442.75
340.702	459.75
340.93	447.75
341.158	452.75
341.386	459.75
341.614	425.75
341.842	425.75
342.07	437.75
342.298	439.75
342.526	428.75
342.754	413.75
342.981	403.75
343.209	400.75
343.437	435.75
343.665	437.75
343.893	435.75
344.12	455.75
344.348	434.75
344.576	448.75
344.804	444.75
345.031	442.75
345.259	452.75
345.487	424.75
345.714	421.75
345.942	428.75
346.17	419.75
346.397	419.75
346.625	412.75
346.853	425.75
347.08	403.75
347.308	417.75
347.535	417.75
347.763	439.75
347.99	435.75
348.218	435.75
348.445	417.75
348.673	451.75
348.9	440.75
349.128	420.75
349.355	396.75
349.583	406.75
349.81	428.75
350.037	391.75
350.265	404.75
350.492	417.75
350.72	409.75
350.947	417.75
351.174	420.75
351.402	426.75
351.629	425.75
351.856	410.75
352.083	439.75
352.311	428.75
352.538	418.75
352.765	435.75
352.992	424.75
353.22	437.75
353.447	421.75
353.674	420.75
353.901	402.75
354.128	404.75
354.355	401.75
354.583	379.75
354.81	397.75
355.037	370.75
355.264	385.75
355.491	381.75
355.718	381.75
355.945	373.75
356.172	363.75
356.399	375.75
356.626	362.75
356.853	379.75
357.08	350.75
357.307	399.75
357.534	381.75
357.761	376.75
357.988	387.75
358.215	365.75
358.441	375.75
358.668	369.75
358.895	411.75
359.122	400.75
359.349	387.75
359.576	389.75
359.802	447.75
360.029	464.75
360.256	484.75
360.483	429.75
360.709	433.75
360.936	409.75
361.163	404.75
361.39	389.75
361.616	412.75
361.843	408.75
362.07	419.75
362.296	407.75
362.523	409.75
362.749	432.75
362.976	409.75
363.203	397.75
363.429	390.75
363.656	387.75
363.882	381.75
364.109	393.75
364.335	392.75
364.562	384.75
364.788	379.75
365.015	387.75
365.241	387.75
365.468	397.75
365.694	395.75
365.92	385.75
366.147	397.75
366.373	388.75
366.599	395.75
366.826	376.75
367.052	375.75
367.278	391.75
367.505	390.75
367.731	376.75
367.957	389.75
368.184	375.75
368.41	405.75
368.636	391.75
368.862	403.75
369.089	398.75
369.315	392.75
369.541	374.75
369.767	398.75
369.993	397.75
370.219	375.75
370.445	387.75
370.672	388.75
370.898	386.75
371.124	387.75
371.35	387.75
371.576	393.75
371.802	383.75
372.028	365.75
372.254	371.75
372.48	377.75
372.706	382.75
372.932	373.75
373.158	395.75
373.384	378.75
373.61	385.75
373.835	383.75
374.061	369.75
374.287	386.75
374.513	380.75
374.739	379.75
374.965	382.75
375.191	397.75
375.416	385.75
375.642	379.75
375.868	387.75
376.094	384.75
376.319	415.75
376.545	376.75
376.771	367.75
376.997	365.75
377.222	379.75
377.448	389.75
377.674	375.75
377.899	387.75
378.125	375.75
378.35	382.75
378.576	365.75
378.802	360.75
379.027	393.75
379.253	378.75
379.478	383.75
379.704	389.75
379.929	380.75
380.155	375.75
380.38	387.75
380.606	386.75
380.831	388.75
381.057	383.75
381.282	372.75
381.507	391.75
381.733	393.75
381.958	361.75
382.184	363.75
382.409	412.75
382.634	389.75
382.86	391.75
383.085	374.75
383.31	399.75
383.535	387.75
383.761	396.75
383.986	403.75
384.211	394.75
384.436	398.75
384.662	398.75
384.887	391.75
385.112	399.75
385.337	400.75
385.562	403.75
385.787	391.75
386.013	427.75
386.238	412.75
386.463	394.75
386.688	388.75
386.913	404.75
387.138	394.75
387.363	414.75
387.588	390.75
387.813	411.75
388.038	391.75
388.263	402.75
388.488	401.75
388.713	409.75
388.938	404.75
389.163	417.75
389.387	402.75
389.612	401.75
389.837	397.75
390.062	391.75
390.287	392.75
390.512	404.75
390.736	392.75
390.961	386.75
391.186	407.75
391.411	403.75
391.636	411.75
391.86	432.75
392.085	403.75
392.31	400.75
392.534	409.75
392.759	423.75
392.984	398.75
393.208	413.75
393.433	415.75
393.658	404.75
393.882	404.75
394.107	396.75
394.331	405.75
394.556	395.75
394.78	391.75
395.005	412.75
395.229	392.75
395.454	401.75
395.678	410.75
395.903	435.75
396.127	425.75
396.352	441.75
396.576	432.75
396.801	408.75
397.025	411.75
397.249	425.75
397.474	424.75
397.698	402.75
397.922	439.75
398.147	450.75
398.371	464.75
398.595	429.75
398.82	439.75
399.044	451.75
399.268	465.75
399.492	483.75
399.717	491.75
399.941	525.75
400.165	556.75
400.389	571.75
400.613	513.75
400.837	473.75
401.062	472.75
401.286	442.75
401.51	447.75
401.734	436.75
401.958	436.75
402.182	453.75
402.406	457.75
402.63	462.75
402.854	447.75
403.078	474.75
403.302	462.75
403.526	449.75
403.75	443.75
403.974	461.75
404.198	461.75
404.422	463.75
404.645	474.75
404.869	468.75
405.093	487.75
405.317	524.75
405.541	505.75
405.765	517.75
405.988	504.75
406.212	495.75
406.436	508.75
406.66	520.75
406.883	505.75
407.107	532.75
407.331	577.75
407.555	641.75
407.778	623.75
408.002	580.75
408.226	531.75
408.449	529.75
408.673	517.75
408.896	522.75
409.12	591.75
409.344	556.75
409.567	491.75
409.791	483.75
410.014	467.75
410.238	465.75
410.461	467.75
410.685	468.75
410.908	481.75
411.132	555.75
411.355	561.75
411.578	541.75
411.802	465.75
412.025	466.75
412.249	472.75
412.472	459.75
412.695	466.75
412.919	484.75
413.142	452.75
413.365	455.75
413.589	417.75
413.812	435.75
414.035	438.75
414.258	433.75
414.482	442.75
414.705	453.75
414.928	440.75
415.151	432.75
415.374	428.75
415.597	421.75
415.821	448.75
416.044	463.75
416.267	454.75
416.49	436.75
416.713	435.75
416.936	432.75
417.159	440.75
417.382	446.75
417.605	429.75
417.828	438.75
418.051	461.75
418.274	466.75
418.497	447.75
418.72	450.75
418.943	427.75
419.166	433.75
419.389	457.75
419.611	457.75
419.834	451.75
420.057	456.75
420.28	465.75
420.503	455.75
420.726	457.75
420.948	462.75
421.171	504.75
421.394	531.75
421.617	471.75
421.839	458.75
422.062	474.75
422.285	479.75
422.507	562.75
422.73	621.75
422.953	568.75
423.175	503.75
423.398	495.75
423.621	472.75
423.843	521.75
424.066	511.75
424.288	508.75
424.511	525.75
424.733	596.75
424.956	643.75
425.178	645.75
425.401	618.75
425.623	627.75
425.846	559.75
426.068	499.75
426.291	501.75
426.513	516.75
426.735	525.75
426.958	556.75
427.18	661.75
427.402	775.75
427.625	831.75
427.847	736.75
428.069	609.75
428.292	566.75
428.514	505.75
428.736	485.75
428.958	475.75
429.181	469.75
429.403	453.75
429.625	486.75
429.847	531.75
430.069	580.75
430.292	588.75
430.514	500.75
430.736	465.75
430.958	472.75
431.18	453.75
431.402	455.75
431.624	440.75
431.846	417.75
432.068	411.75
432.29	447.75
432.512	445.75
432.734	469.75
432.956	452.75
433.178	452.75
433.4	447.75
433.622	453.75
433.844	448.75
434.066	436.75
434.287	422.75
434.509	421.75
434.731	468.75
434.953	447.75
435.175	467.75
435.397	479.75
435.618	499.75
435.84	552.75
436.062	653.75
436.284	698.75
436.505	604.75
436.727	519.75
436.949	488.75
437.17	482.75
437.392	478.75
437.614	501.75
437.835	542.75
438.057	610.75
438.278	716.75
438.5	748.75
438.721	783.75
438.943	742.75
439.165	587.75
439.386	521.75
439.608	519.75
439.829	531.75
440.05	552.75
440.272	576.75
440.493	579.75
440.715	514.75
440.936	479.75
441.158	485.75
441.379	473.75
441.6	479.75
441.822	506.75
442.043	551.75
442.264	632.75
442.486	656.75
442.707	577.75
442.928	541.75
443.149	548.75
443.371	532.75
443.592	591.75
443.813	712.75
444.034	751.75
444.255	614.75
444.476	542.75
444.698	503.75
444.919	515.75
445.14	618.75
445.361	572.75
445.582	563.75
445.803	612.75
446.024	720.75
446.245	729.75
446.466	634.75
446.687	567.75
446.908	515.75
447.129	492.75
447.35	498.75
447.571	474.75
447.792	461.75
448.013	481.75
448.234	501.75
448.455	563.75
448.675	651.75
448.896	817.75
449.117	673.75
449.338	616.75
449.559	704.75
449.779	794.75
450	635.75
450.221	537.75
450.442	490.75
450.662	485.75
450.883	449.75
451.104	502.75
451.324	477.75
451.545	444.75
451.766	448.75
451.986	413.75
452.207	424.75
452.428	415.75
452.648	416.75
452.869	420.75
453.089	424.75
453.31	433.75
453.53	435.75
453.751	428.75
453.971	449.75
454.192	435.75
454.412	431.75
454.633	433.75
454.853	409.75
455.073	416.75
455.294	423.75
455.514	523.75
455.734	517.75
455.955	423.75
456.175	401.75
456.395	399.75
456.616	387.75
456.836	380.75
457.056	378.75
457.276	378.75
457.497	395.75
457.717	392.75
457.937	409.75
458.157	414.75
458.377	390.75
458.598	406.75
458.818	478.75
459.038	572.75
459.258	584.75
459.478	481.75
459.698	452.75
459.918	419.75
460.138	435.75
460.358	424.75
460.578	421.75
460.798	435.75
461.018	417.75
461.238	443.75
461.458	433.75
461.678	438.75
461.898	423.75
462.118	441.75
462.338	432.75
462.558	437.75
462.777	442.75
462.997	452.75
463.217	451.75
463.437	459.75
463.657	457.75
463.876	452.75
464.096	459.75
464.316	468.75
464.536	456.75
464.755	454.75
464.975	454.75
465.195	546.75
465.414	595.75
465.634	522.75
465.854	475.75
466.073	460.75
466.293	437.75
466.512	433.75
466.732	417.75
466.951	431.75
467.171	415.75
467.391	424.75
467.61	427.75
467.829	451.75
468.049	439.75
468.268	416.75
468.488	412.75
468.707	405.75
468.927	408.75
469.146	403.75
469.365	409.75
469.585	428.75
469.804	419.75
470.023	425.75
470.243	410.75
470.462	422.75
470.681	436.75
470.901	455.75
471.12	435.75
471.339	437.75
471.558	436.75
471.777	452.75
471.997	407.75
472.216	416.75
472.435	443.75
472.654	438.75
472.873	416.75
473.092	413.75
473.311	417.75
473.53	405.75
473.749	430.75
473.968	455.75
474.187	584.75
474.406	624.75
474.625	496.75
474.844	453.75
475.063	427.75
475.282	432.75
475.501	417.75
475.72	432.75
475.939	439.75
476.158	441.75
476.377	434.75
476.596	428.75
476.814	467.75
477.033	450.75
477.252	455.75
477.471	454.75
477.69	440.75
477.908	448.75
478.127	458.75
478.346	462.75
478.564	471.75
478.783	474.75
479.002	468.75
479.22	489.75
479.439	489.75
479.658	516.75
479.876	518.75
480.095	514.75
480.313	524.75
480.532	517.75
480.751	512.75
480.969	519.75
481.188	498.75
481.406	511.75
481.624	501.75
481.843	495.75
482.061	489.75
482.28	484.75
482.498	495.75
482.717	484.75
482.935	497.75
483.153	504.75
483.372	492.75
483.59	478.75
483.808	482.75
484.027	504.75
484.245	472.75
484.463	501.75
484.681	523.75
484.9	497.75
485.118	520.75
485.336	514.75
485.554	515.75
485.772	511.75
485.99	508.75
486.209	530.75
486.427	523.75
486.645	529.75
486.863	546.75
487.081	533.75
487.299	546.75
487.517	551.75
487.735	543.75
487.953	523.75
488.171	544.75
488.389	540.75
488.607	549.75
488.825	563.75
489.043	548.75
489.261	559.75
489.479	531.75
489.696	561.75
489.914	571.75
490.132	547.75
490.35	559.75
490.568	575.75
490.786	568.75
491.003	587.75
491.221	591.75
491.439	593.75
491.657	594.75
491.874	607.75
492.092	647.75
492.31	626.75
492.527	606.75
492.745	593.75
492.963	608.75
493.18	610.75
493.398	624.75
493.615	635.75
493.833	604.75
494.05	620.75
494.268	637.75
494.485	623.75
494.703	631.75
494.92	646.75
495.138	632.75
495.355	646.75
495.573	648.75
495.79	637.75
496.008	659.75
496.225	625.75
496.442	629.75
496.66	653.75
496.877	630.75
497.094	639.75
497.312	644.75
497.529	643.75
497.746	673.75
497.963	695.75
498.181	695.75
498.398	714.75
498.615	695.75
498.832	719.75
499.049	720.75
499.267	716.75
499.484	736.75
499.701	761.75
499.918	767.75
500.135	795.75
500.352	823.75
500.569	838.75
500.786	847.75
501.003	834.75
501.22	804.75
501.437	793.75
501.654	781.75
501.871	794.75
