Data from 1989.PennyLincolnUp.Lamp.En5.5.200Scan.071819.P2_HRD10591_17-25-08-974.txt Node
Date: Thu Jul 18 17:25:08 EDT 2019
User: cochatt
Spectrometer: HR+D1059
Trigger mode: 1
Integration Time (sec): 1.000000E-1
Scans to average: 1
Electric dark correction enabled: true
Nonlinearity correction enabled: false
Boxcar width: 0
XAxis mode: Wavelengths
Number of Pixels in Spectrum: 2048
>>>>>Begin Spectral Data<<<<<
223.165	-15.19
223.4	-15.19
223.635	-15.19
223.869	-9.19
224.104	-24.19
224.338	-13.19
224.573	-21.19
224.808	-12.19
225.042	-19.19
225.277	-7.19
225.511	4.81
225.746	-1.19
225.98	2.81
226.215	15.81
226.449	19.81
226.683	22.81
226.918	23.81
227.152	32.81
227.387	37.81
227.621	43.81
227.856	46.81
228.09	44.81
228.324	41.81
228.559	44.81
228.793	56.81
229.027	105.81
229.262	106.81
229.496	125.81
229.73	152.81
229.964	164.81
230.199	148.81
230.433	106.81
230.667	112.81
230.901	117.81
231.136	108.81
231.37	117.81
231.604	116.81
231.838	123.81
232.072	109.81
232.306	108.81
232.541	121.81
232.775	113.81
233.009	121.81
233.243	108.81
233.477	118.81
233.711	120.81
233.945	118.81
234.179	120.81
234.413	128.81
234.647	112.81
234.881	121.81
235.115	123.81
235.349	132.81
235.583	133.81
235.817	130.81
236.051	134.81
236.285	124.81
236.519	142.81
236.753	138.81
236.987	149.81
237.221	190.81
237.455	240.81
237.689	192.81
237.922	165.81
238.156	140.81
238.39	147.81
238.624	134.81
238.858	131.81
239.091	132.81
239.325	142.81
239.559	117.81
239.793	126.81
240.027	149.81
240.26	145.81
240.494	183.81
240.728	156.81
240.961	177.81
241.195	159.81
241.429	159.81
241.662	135.81
241.896	155.81
242.13	140.81
242.363	145.81
242.597	148.81
242.83	147.81
243.064	146.81
243.298	163.81
243.531	146.81
243.765	147.81
243.998	162.81
244.232	141.81
244.465	141.81
244.699	146.81
244.932	142.81
245.166	157.81
245.399	162.81
245.633	147.81
245.866	166.81
246.099	161.81
246.333	149.81
246.566	143.81
246.8	159.81
247.033	176.81
247.266	176.81
247.5	193.81
247.733	180.81
247.966	185.81
248.2	177.81
248.433	177.81
248.666	184.81
248.899	192.81
249.133	228.81
249.366	222.81
249.599	223.81
249.832	194.81
250.066	194.81
250.299	201.81
250.532	189.81
250.765	230.81
250.998	234.81
251.231	258.81
251.465	246.81
251.698	230.81
251.931	237.81
252.164	208.81
252.397	210.81
252.63	224.81
252.863	227.81
253.096	228.81
253.329	256.81
253.562	251.81
253.795	254.81
254.028	240.81
254.261	244.81
254.494	259.81
254.727	301.81
254.96	327.81
255.193	304.81
255.426	282.81
255.659	278.81
255.892	284.81
256.124	234.81
256.357	268.81
256.59	258.81
256.823	242.81
257.056	234.81
257.289	229.81
257.521	238.81
257.754	229.81
257.987	222.81
258.22	226.81
258.452	236.81
258.685	233.81
258.918	240.81
259.151	244.81
259.383	240.81
259.616	250.81
259.849	253.81
260.081	271.81
260.314	290.81
260.547	279.81
260.779	277.81
261.012	276.81
261.244	234.81
261.477	246.81
261.71	267.81
261.942	268.81
262.175	263.81
262.407	257.81
262.64	238.81
262.872	243.81
263.105	237.81
263.337	239.81
263.57	234.81
263.802	240.81
264.035	228.81
264.267	244.81
264.499	248.81
264.732	221.81
264.964	216.81
265.197	221.81
265.429	234.81
265.661	242.81
265.894	229.81
266.126	242.81
266.358	250.81
266.591	229.81
266.823	260.81
267.055	264.81
267.287	260.81
267.52	233.81
267.752	237.81
267.984	242.81
268.216	254.81
268.448	249.81
268.681	272.81
268.913	262.81
269.145	300.81
269.377	309.81
269.609	325.81
269.841	310.81
270.073	317.81
270.306	348.81
270.538	365.81
270.77	370.81
271.002	350.81
271.234	345.81
271.466	337.81
271.698	346.81
271.93	373.81
272.162	354.81
272.394	363.81
272.626	339.81
272.858	343.81
273.09	310.81
273.322	321.81
273.553	282.81
273.785	292.81
274.017	297.81
274.249	291.81
274.481	309.81
274.713	293.81
274.945	298.81
275.176	307.81
275.408	276.81
275.64	305.81
275.872	304.81
276.104	308.81
276.335	294.81
276.567	308.81
276.799	326.81
277.031	353.81
277.262	369.81
277.494	344.81
277.726	330.81
277.957	315.81
278.189	297.81
278.421	304.81
278.652	309.81
278.884	297.81
279.115	301.81
279.347	286.81
279.579	293.81
279.81	309.81
280.042	300.81
280.273	321.81
280.505	298.81
280.736	296.81
280.968	273.81
281.199	291.81
281.431	301.81
281.662	291.81
281.894	319.81
282.125	309.81
282.356	326.81
282.588	351.81
282.819	345.81
283.051	306.81
283.282	304.81
283.513	302.81
283.745	308.81
283.976	298.81
284.207	315.81
284.439	308.81
284.67	299.81
284.901	316.81
285.132	296.81
285.364	292.81
285.595	301.81
285.826	298.81
286.057	309.81
286.288	316.81
286.52	298.81
286.751	301.81
286.982	307.81
287.213	302.81
287.444	295.81
287.675	331.81
287.906	333.81
288.138	321.81
288.369	340.81
288.6	336.81
288.831	327.81
289.062	336.81
289.293	328.81
289.524	304.81
289.755	327.81
289.986	313.81
290.217	304.81
290.448	313.81
290.679	316.81
290.91	324.81
291.141	304.81
291.371	316.81
291.602	299.81
291.833	308.81
292.064	316.81
292.295	308.81
292.526	310.81
292.757	301.81
292.987	309.81
293.218	308.81
293.449	319.81
293.68	317.81
293.91	305.81
294.141	296.81
294.372	315.81
294.603	310.81
294.833	316.81
295.064	307.81
295.295	317.81
295.525	334.81
295.756	321.81
295.987	332.81
296.217	348.81
296.448	364.81
296.679	338.81
296.909	341.81
297.14	340.81
297.37	330.81
297.601	320.81
297.831	316.81
298.062	333.81
298.292	333.81
298.523	320.81
298.753	329.81
298.984	338.81
299.214	325.81
299.445	336.81
299.675	346.81
299.905	327.81
300.136	356.81
300.366	323.81
300.597	334.81
300.827	353.81
301.057	339.81
301.288	332.81
301.518	348.81
301.748	353.81
301.979	366.81
302.209	355.81
302.439	379.81
302.669	360.81
302.9	355.81
303.13	359.81
303.36	366.81
303.59	367.81
303.82	374.81
304.051	376.81
304.281	357.81
304.511	370.81
304.741	364.81
304.971	360.81
305.201	349.81
305.431	353.81
305.661	360.81
305.891	365.81
306.121	350.81
306.352	353.81
306.582	370.81
306.812	355.81
307.042	364.81
307.272	365.81
307.502	361.81
307.731	382.81
307.961	375.81
308.191	352.81
308.421	358.81
308.651	348.81
308.881	357.81
309.111	365.81
309.341	368.81
309.571	392.81
309.8	401.81
310.03	405.81
310.26	414.81
310.49	410.81
310.72	420.81
310.949	448.81
311.179	438.81
311.409	421.81
311.639	417.81
311.868	419.81
312.098	405.81
312.328	424.81
312.557	448.81
312.787	440.81
313.017	456.81
313.246	424.81
313.476	401.81
313.706	422.81
313.935	422.81
314.165	451.81
314.394	440.81
314.624	434.81
314.853	428.81
315.083	430.81
315.312	402.81
315.542	393.81
315.771	415.81
316.001	425.81
316.23	391.81
316.46	408.81
316.689	427.81
316.919	420.81
317.148	420.81
317.377	435.81
317.607	434.81
317.836	403.81
318.065	410.81
318.295	427.81
318.524	412.81
318.753	392.81
318.983	395.81
319.212	422.81
319.441	408.81
319.67	430.81
319.9	420.81
320.129	413.81
320.358	440.81
320.587	421.81
320.816	420.81
321.046	442.81
321.275	435.81
321.504	436.81
321.733	436.81
321.962	457.81
322.191	454.81
322.42	483.81
322.649	499.81
322.878	497.81
323.108	501.81
323.337	533.81
323.566	554.81
323.795	610.81
324.024	684.81
324.253	836.81
324.482	1150.81
324.71	1814.81
324.939	2617.81
325.168	2269.81
325.397	1166.81
325.626	802.81
325.855	631.81
326.084	577.81
326.313	586.81
326.542	557.81
326.77	637.81
326.999	754.81
327.228	1036.81
327.457	1599.81
327.686	1932.81
327.914	1290.81
328.143	838.81
328.372	728.81
328.6	682.81
328.829	645.81
329.058	655.81
329.287	684.81
329.515	628.81
329.744	556.81
329.972	581.81
330.201	580.81
330.43	627.81
330.658	661.81
330.887	695.81
331.115	657.81
331.344	589.81
331.572	568.81
331.801	544.81
332.03	550.81
332.258	518.81
332.486	500.81
332.715	514.81
332.943	480.81
333.172	482.81
333.4	485.81
333.629	504.81
333.857	523.81
334.085	522.81
334.314	533.81
334.542	564.81
334.771	592.81
334.999	534.81
335.227	510.81
335.455	499.81
335.684	465.81
335.912	482.81
336.14	465.81
336.369	453.81
336.597	501.81
336.825	498.81
337.053	483.81
337.281	490.81
337.51	456.81
337.738	454.81
337.966	457.81
338.194	489.81
338.422	472.81
338.65	460.81
338.878	437.81
339.106	446.81
339.334	474.81
339.562	474.81
339.79	417.81
340.018	442.81
340.246	476.81
340.474	469.81
340.702	458.81
340.93	447.81
341.158	457.81
341.386	480.81
341.614	456.81
341.842	454.81
342.07	453.81
342.298	456.81
342.526	448.81
342.754	434.81
342.981	424.81
343.209	442.81
343.437	460.81
343.665	460.81
343.893	465.81
344.12	474.81
344.348	458.81
344.576	464.81
344.804	466.81
345.031	497.81
345.259	479.81
345.487	454.81
345.714	458.81
345.942	446.81
346.17	467.81
346.397	455.81
346.625	437.81
346.853	434.81
347.08	443.81
347.308	452.81
347.535	457.81
347.763	470.81
347.99	445.81
348.218	422.81
348.445	461.81
348.673	469.81
348.9	456.81
349.128	451.81
349.355	394.81
349.583	407.81
349.81	425.81
350.037	419.81
350.265	432.81
350.492	432.81
350.72	426.81
350.947	441.81
351.174	436.81
351.402	453.81
351.629	470.81
351.856	455.81
352.083	446.81
352.311	463.81
352.538	460.81
352.765	461.81
352.992	470.81
353.22	435.81
353.447	426.81
353.674	436.81
353.901	408.81
354.128	424.81
354.355	402.81
354.583	403.81
354.81	388.81
355.037	398.81
355.264	401.81
355.491	406.81
355.718	414.81
355.945	402.81
356.172	390.81
356.399	420.81
356.626	387.81
356.853	413.81
357.08	396.81
357.307	410.81
357.534	402.81
357.761	410.81
357.988	402.81
358.215	422.81
358.441	419.81
358.668	377.81
358.895	424.81
359.122	408.81
359.349	431.81
359.576	429.81
359.802	466.81
360.029	490.81
360.256	508.81
360.483	460.81
360.709	455.81
360.936	446.81
361.163	443.81
361.39	428.81
361.616	451.81
361.843	442.81
362.07	449.81
362.296	437.81
362.523	420.81
362.749	428.81
362.976	417.81
363.203	427.81
363.429	413.81
363.656	380.81
363.882	403.81
364.109	424.81
364.335	416.81
364.562	408.81
364.788	384.81
365.015	403.81
365.241	415.81
365.468	414.81
365.694	421.81
365.92	418.81
366.147	418.81
366.373	417.81
366.599	408.81
366.826	406.81
367.052	406.81
367.278	412.81
367.505	412.81
367.731	389.81
367.957	381.81
368.184	417.81
368.41	422.81
368.636	432.81
368.862	419.81
369.089	417.81
369.315	410.81
369.541	406.81
369.767	420.81
369.993	404.81
370.219	402.81
370.445	396.81
370.672	381.81
370.898	404.81
371.124	390.81
371.35	396.81
371.576	398.81
371.802	393.81
372.028	390.81
372.254	403.81
372.48	380.81
372.706	396.81
372.932	402.81
373.158	414.81
373.384	383.81
373.61	400.81
373.835	382.81
374.061	403.81
374.287	388.81
374.513	412.81
374.739	410.81
374.965	414.81
375.191	429.81
375.416	414.81
375.642	395.81
375.868	408.81
376.094	405.81
376.319	421.81
376.545	405.81
376.771	395.81
376.997	405.81
377.222	400.81
377.448	410.81
377.674	398.81
377.899	378.81
378.125	386.81
378.35	379.81
378.576	397.81
378.802	372.81
379.027	376.81
379.253	384.81
379.478	391.81
379.704	395.81
379.929	417.81
380.155	396.81
380.38	376.81
380.606	394.81
380.831	392.81
381.057	400.81
381.282	394.81
381.507	405.81
381.733	384.81
381.958	399.81
382.184	387.81
382.409	412.81
382.634	399.81
382.86	378.81
383.085	400.81
383.31	389.81
383.535	412.81
383.761	400.81
383.986	420.81
384.211	405.81
384.436	416.81
384.662	418.81
384.887	416.81
385.112	401.81
385.337	404.81
385.562	421.81
385.787	429.81
386.013	426.81
386.238	446.81
386.463	409.81
386.688	419.81
386.913	420.81
387.138	425.81
387.363	416.81
387.588	406.81
387.813	424.81
388.038	416.81
388.263	434.81
388.488	410.81
388.713	415.81
388.938	430.81
389.163	429.81
389.387	427.81
389.612	412.81
389.837	412.81
390.062	413.81
390.287	433.81
390.512	444.81
390.736	429.81
390.961	434.81
391.186	419.81
391.411	424.81
391.636	438.81
391.86	425.81
392.085	405.81
392.31	428.81
392.534	398.81
392.759	424.81
392.984	427.81
393.208	411.81
393.433	412.81
393.658	414.81
393.882	401.81
394.107	412.81
394.331	441.81
394.556	414.81
394.78	428.81
395.005	438.81
395.229	418.81
395.454	434.81
395.678	423.81
395.903	448.81
396.127	444.81
396.352	452.81
396.576	412.81
396.801	413.81
397.025	425.81
397.249	436.81
397.474	424.81
397.698	438.81
397.922	461.81
398.147	456.81
398.371	462.81
398.595	454.81
398.82	481.81
399.044	477.81
399.268	467.81
399.492	503.81
399.717	530.81
399.941	568.81
400.165	572.81
400.389	595.81
400.613	539.81
400.837	498.81
401.062	475.81
401.286	477.81
401.51	480.81
401.734	454.81
401.958	476.81
402.182	480.81
402.406	499.81
402.63	490.81
402.854	488.81
403.078	487.81
403.302	494.81
403.526	473.81
403.75	477.81
403.974	460.81
404.198	495.81
404.422	478.81
404.645	501.81
404.869	520.81
405.093	523.81
405.317	576.81
405.541	598.81
405.765	546.81
405.988	519.81
406.212	518.81
406.436	534.81
406.66	565.81
406.883	537.81
407.107	564.81
407.331	586.81
407.555	645.81
407.778	659.81
408.002	617.81
408.226	558.81
408.449	551.81
408.673	551.81
408.896	547.81
409.12	610.81
409.344	594.81
409.567	519.81
409.791	521.81
410.014	477.81
410.238	500.81
410.461	506.81
410.685	464.81
410.908	488.81
411.132	572.81
411.355	597.81
411.578	547.81
411.802	518.81
412.025	514.81
412.249	481.81
412.472	517.81
412.695	534.81
412.919	540.81
413.142	491.81
413.365	480.81
413.589	474.81
413.812	469.81
414.035	468.81
414.258	472.81
414.482	441.81
414.705	469.81
414.928	443.81
415.151	482.81
415.374	460.81
415.597	461.81
415.821	447.81
416.044	459.81
416.267	476.81
416.49	456.81
416.713	467.81
416.936	457.81
417.159	463.81
417.382	467.81
417.605	481.81
417.828	468.81
418.051	492.81
418.274	477.81
418.497	453.81
418.72	442.81
418.943	454.81
419.166	478.81
419.389	492.81
419.611	482.81
419.834	492.81
420.057	485.81
420.28	509.81
420.503	501.81
420.726	487.81
420.948	511.81
421.171	549.81
421.394	585.81
421.617	522.81
421.839	495.81
422.062	510.81
422.285	490.81
422.507	550.81
422.73	644.81
422.953	619.81
423.175	543.81
423.398	534.81
423.621	520.81
423.843	538.81
424.066	542.81
424.288	523.81
424.511	556.81
424.733	613.81
424.956	673.81
425.178	680.81
425.401	650.81
425.623	692.81
425.846	594.81
426.068	536.81
426.291	527.81
426.513	524.81
426.735	524.81
426.958	572.81
427.18	678.81
427.402	790.81
427.625	877.81
427.847	782.81
428.069	651.81
428.292	587.81
428.514	531.81
428.736	506.81
428.958	516.81
429.181	496.81
429.403	492.81
429.625	495.81
429.847	527.81
430.069	589.81
430.292	605.81
430.514	516.81
430.736	475.81
430.958	484.81
431.18	475.81
431.402	481.81
431.624	470.81
431.846	452.81
432.068	466.81
432.29	445.81
432.512	460.81
432.734	475.81
432.956	472.81
433.178	478.81
433.4	472.81
433.622	457.81
433.844	457.81
434.066	461.81
434.287	450.81
434.509	454.81
434.731	475.81
434.953	489.81
435.175	479.81
435.397	533.81
435.618	542.81
435.84	590.81
436.062	678.81
436.284	737.81
436.505	644.81
436.727	573.81
436.949	512.81
437.17	491.81
437.392	492.81
437.614	527.81
437.835	549.81
438.057	656.81
438.278	757.81
438.5	759.81
438.721	838.81
438.943	800.81
439.165	638.81
439.386	556.81
439.608	546.81
439.829	556.81
440.05	580.81
440.272	636.81
440.493	575.81
440.715	557.81
440.936	521.81
441.158	508.81
441.379	516.81
441.6	532.81
441.822	528.81
442.043	579.81
442.264	658.81
442.486	700.81
442.707	593.81
442.928	552.81
443.149	562.81
443.371	597.81
443.592	620.81
443.813	715.81
444.034	754.81
444.255	635.81
444.476	567.81
444.698	525.81
444.919	538.81
445.14	634.81
445.361	599.81
445.582	598.81
445.803	663.81
446.024	777.81
446.245	772.81
446.466	665.81
446.687	578.81
446.908	560.81
447.129	509.81
447.35	491.81
447.571	481.81
447.792	510.81
448.013	502.81
448.234	527.81
448.455	576.81
448.675	695.81
448.896	821.81
449.117	685.81
449.338	646.81
449.559	760.81
449.779	849.81
450	695.81
450.221	556.81
450.442	530.81
450.662	500.81
450.883	501.81
451.104	524.81
451.324	515.81
451.545	491.81
451.766	435.81
451.986	465.81
452.207	452.81
452.428	410.81
452.648	442.81
452.869	439.81
453.089	443.81
453.31	471.81
453.53	446.81
453.751	444.81
453.971	448.81
454.192	484.81
454.412	465.81
454.633	433.81
454.853	452.81
455.073	443.81
455.294	434.81
455.514	530.81
455.734	536.81
455.955	447.81
456.175	429.81
456.395	414.81
456.616	415.81
456.836	422.81
457.056	404.81
457.276	394.81
457.497	438.81
457.717	413.81
457.937	414.81
458.157	429.81
458.377	446.81
458.598	472.81
458.818	532.81
459.038	610.81
459.258	611.81
459.478	515.81
459.698	467.81
459.918	461.81
460.138	462.81
460.358	444.81
460.578	443.81
460.798	469.81
461.018	461.81
461.238	464.81
461.458	449.81
461.678	456.81
461.898	439.81
462.118	445.81
462.338	432.81
462.558	459.81
462.777	462.81
462.997	465.81
463.217	486.81
463.437	467.81
463.657	487.81
463.876	483.81
464.096	490.81
464.316	464.81
464.536	484.81
464.755	491.81
464.975	485.81
465.195	561.81
465.414	637.81
465.634	546.81
465.854	498.81
466.073	473.81
466.293	473.81
466.512	445.81
466.732	459.81
466.951	446.81
467.171	436.81
467.391	434.81
467.61	438.81
467.829	454.81
468.049	472.81
468.268	459.81
468.488	448.81
468.707	436.81
468.927	438.81
469.146	416.81
469.365	432.81
469.585	426.81
469.804	433.81
470.023	445.81
470.243	473.81
470.462	466.81
470.681	466.81
470.901	483.81
471.12	478.81
471.339	463.81
471.558	460.81
471.777	456.81
471.997	444.81
472.216	453.81
472.435	488.81
472.654	454.81
472.873	442.81
473.092	440.81
473.311	458.81
473.53	453.81
473.749	461.81
473.968	498.81
474.187	616.81
474.406	644.81
474.625	503.81
474.844	476.81
475.063	471.81
475.282	450.81
475.501	456.81
475.72	472.81
475.939	465.81
476.158	472.81
476.377	468.81
476.596	473.81
476.814	470.81
477.033	487.81
477.252	470.81
477.471	481.81
477.69	471.81
477.908	497.81
478.127	469.81
478.346	475.81
478.564	496.81
478.783	494.81
479.002	522.81
479.22	510.81
479.439	508.81
479.658	526.81
479.876	542.81
480.095	553.81
480.313	570.81
480.532	570.81
480.751	548.81
480.969	543.81
481.188	609.81
481.406	601.81
481.624	578.81
481.843	560.81
482.061	540.81
482.28	551.81
482.498	525.81
482.717	523.81
482.935	499.81
483.153	540.81
483.372	540.81
483.59	515.81
483.808	516.81
484.027	540.81
484.245	542.81
484.463	534.81
484.681	532.81
484.9	518.81
485.118	523.81
485.336	530.81
485.554	532.81
485.772	544.81
485.99	552.81
486.209	550.81
486.427	561.81
486.645	560.81
486.863	576.81
487.081	588.81
487.299	573.81
487.517	565.81
487.735	566.81
487.953	562.81
488.171	562.81
488.389	561.81
488.607	581.81
488.825	566.81
489.043	591.81
489.261	591.81
489.479	596.81
489.696	589.81
489.914	558.81
490.132	602.81
490.35	577.81
490.568	596.81
490.786	610.81
491.003	600.81
491.221	644.81
491.439	631.81
491.657	629.81
491.874	644.81
492.092	658.81
492.31	667.81
492.527	646.81
492.745	663.81
492.963	674.81
493.18	679.81
493.398	686.81
493.615	671.81
493.833	681.81
494.05	694.81
494.268	688.81
494.485	676.81
494.703	678.81
494.92	701.81
495.138	674.81
495.355	687.81
495.573	680.81
495.79	689.81
496.008	672.81
496.225	686.81
496.442	646.81
496.66	675.81
496.877	674.81
497.094	692.81
497.312	684.81
497.529	691.81
497.746	697.81
497.963	692.81
498.181	726.81
498.398	752.81
498.615	739.81
498.832	734.81
499.049	741.81
499.267	772.81
499.484	804.81
499.701	778.81
499.918	842.81
500.135	861.81
500.352	878.81
500.569	880.81
500.786	886.81
501.003	866.81
501.22	859.81
501.437	846.81
501.654	841.81
501.871	853.81
