Data from 1989.PennyLincolnUp.Lamp.En5.5.200Scan.071819.P2_HRD10591_17-25-58-974.txt Node
Date: Thu Jul 18 17:25:58 EDT 2019
User: cochatt
Spectrometer: HR+D1059
Trigger mode: 1
Integration Time (sec): 1.000000E-1
Scans to average: 1
Electric dark correction enabled: true
Nonlinearity correction enabled: false
Boxcar width: 0
XAxis mode: Wavelengths
Number of Pixels in Spectrum: 2048
>>>>>Begin Spectral Data<<<<<
223.165	-3.44
223.4	-3.44
223.635	-3.44
223.869	-20.44
224.104	-31.44
224.338	-11.44
224.573	-18.44
224.808	-11.44
225.042	3.56
225.277	-11.44
225.511	-10.44
225.746	15.56
225.98	25.56
226.215	4.56
226.449	6.56
226.683	13.56
226.918	16.56
227.152	32.56
227.387	18.56
227.621	28.56
227.856	44.56
228.09	55.56
228.324	36.56
228.559	54.56
228.793	61.56
229.027	99.56
229.262	114.56
229.496	113.56
229.73	146.56
229.964	176.56
230.199	154.56
230.433	121.56
230.667	114.56
230.901	128.56
231.136	114.56
231.37	126.56
231.604	119.56
231.838	122.56
232.072	124.56
232.306	105.56
232.541	100.56
232.775	123.56
233.009	118.56
233.243	101.56
233.477	108.56
233.711	123.56
233.945	118.56
234.179	110.56
234.413	123.56
234.647	132.56
234.881	117.56
235.115	136.56
235.349	125.56
235.583	128.56
235.817	124.56
236.051	126.56
236.285	121.56
236.519	124.56
236.753	148.56
236.987	150.56
237.221	194.56
237.455	255.56
237.689	212.56
237.922	160.56
238.156	153.56
238.39	122.56
238.624	114.56
238.858	131.56
239.091	129.56
239.325	134.56
239.559	123.56
239.793	146.56
240.027	138.56
240.26	147.56
240.494	171.56
240.728	180.56
240.961	148.56
241.195	154.56
241.429	153.56
241.662	138.56
241.896	125.56
242.13	143.56
242.363	152.56
242.597	133.56
242.83	163.56
243.064	142.56
243.298	142.56
243.531	148.56
243.765	156.56
243.998	153.56
244.232	166.56
244.465	158.56
244.699	164.56
244.932	140.56
245.166	132.56
245.399	141.56
245.633	148.56
245.866	166.56
246.099	160.56
246.333	172.56
246.566	171.56
246.8	158.56
247.033	187.56
247.266	164.56
247.5	173.56
247.733	183.56
247.966	200.56
248.2	183.56
248.433	188.56
248.666	197.56
248.899	193.56
249.133	217.56
249.366	242.56
249.599	213.56
249.832	202.56
250.066	213.56
250.299	203.56
250.532	228.56
250.765	255.56
250.998	252.56
251.231	285.56
251.465	250.56
251.698	240.56
251.931	238.56
252.164	221.56
252.397	233.56
252.63	217.56
252.863	222.56
253.096	229.56
253.329	252.56
253.562	260.56
253.795	240.56
254.028	245.56
254.261	256.56
254.494	256.56
254.727	309.56
254.96	296.56
255.193	296.56
255.426	286.56
255.659	288.56
255.892	267.56
256.124	298.56
256.357	297.56
256.59	265.56
256.823	267.56
257.056	253.56
257.289	249.56
257.521	243.56
257.754	234.56
257.987	235.56
258.22	240.56
258.452	247.56
258.685	227.56
258.918	245.56
259.151	240.56
259.383	244.56
259.616	245.56
259.849	260.56
260.081	256.56
260.314	284.56
260.547	310.56
260.779	269.56
261.012	293.56
261.244	266.56
261.477	273.56
261.71	251.56
261.942	243.56
262.175	275.56
262.407	246.56
262.64	222.56
262.872	238.56
263.105	247.56
263.337	239.56
263.57	253.56
263.802	247.56
264.035	226.56
264.267	260.56
264.499	227.56
264.732	229.56
264.964	233.56
265.197	233.56
265.429	244.56
265.661	256.56
265.894	253.56
266.126	251.56
266.358	218.56
266.591	232.56
266.823	246.56
267.055	256.56
267.287	249.56
267.52	261.56
267.752	259.56
267.984	248.56
268.216	266.56
268.448	251.56
268.681	267.56
268.913	282.56
269.145	282.56
269.377	308.56
269.609	306.56
269.841	290.56
270.073	313.56
270.306	333.56
270.538	362.56
270.77	346.56
271.002	357.56
271.234	346.56
271.466	340.56
271.698	345.56
271.93	351.56
272.162	365.56
272.394	352.56
272.626	359.56
272.858	326.56
273.09	317.56
273.322	307.56
273.553	280.56
273.785	306.56
274.017	306.56
274.249	296.56
274.481	307.56
274.713	298.56
274.945	304.56
275.176	297.56
275.408	303.56
275.64	294.56
275.872	294.56
276.104	294.56
276.335	294.56
276.567	298.56
276.799	329.56
277.031	316.56
277.262	348.56
277.494	362.56
277.726	347.56
277.957	329.56
278.189	323.56
278.421	297.56
278.652	308.56
278.884	311.56
279.115	306.56
279.347	304.56
279.579	318.56
279.81	286.56
280.042	289.56
280.273	304.56
280.505	292.56
280.736	300.56
280.968	304.56
281.199	288.56
281.431	319.56
281.662	312.56
281.894	310.56
282.125	320.56
282.356	326.56
282.588	348.56
282.819	363.56
283.051	306.56
283.282	298.56
283.513	296.56
283.745	310.56
283.976	315.56
284.207	311.56
284.439	293.56
284.67	312.56
284.901	283.56
285.132	316.56
285.364	314.56
285.595	301.56
285.826	314.56
286.057	309.56
286.288	308.56
286.52	306.56
286.751	308.56
286.982	309.56
287.213	313.56
287.444	306.56
287.675	319.56
287.906	324.56
288.138	334.56
288.369	325.56
288.6	338.56
288.831	330.56
289.062	329.56
289.293	313.56
289.524	324.56
289.755	305.56
289.986	328.56
290.217	308.56
290.448	329.56
290.679	335.56
290.91	321.56
291.141	316.56
291.371	314.56
291.602	317.56
291.833	327.56
292.064	300.56
292.295	332.56
292.526	324.56
292.757	312.56
292.987	330.56
293.218	328.56
293.449	326.56
293.68	312.56
293.91	313.56
294.141	325.56
294.372	325.56
294.603	296.56
294.833	318.56
295.064	320.56
295.295	330.56
295.525	333.56
295.756	324.56
295.987	318.56
296.217	356.56
296.448	372.56
296.679	322.56
296.909	336.56
297.14	320.56
297.37	335.56
297.601	321.56
297.831	315.56
298.062	342.56
298.292	324.56
298.523	330.56
298.753	325.56
298.984	362.56
299.214	331.56
299.445	345.56
299.675	352.56
299.905	320.56
300.136	356.56
300.366	310.56
300.597	333.56
300.827	346.56
301.057	340.56
301.288	365.56
301.518	355.56
301.748	349.56
301.979	348.56
302.209	362.56
302.439	348.56
302.669	368.56
302.9	347.56
303.13	359.56
303.36	340.56
303.59	362.56
303.82	379.56
304.051	360.56
304.281	364.56
304.511	349.56
304.741	340.56
304.971	318.56
305.201	367.56
305.431	353.56
305.661	342.56
305.891	369.56
306.121	353.56
306.352	360.56
306.582	381.56
306.812	364.56
307.042	361.56
307.272	346.56
307.502	382.56
307.731	361.56
307.961	366.56
308.191	366.56
308.421	343.56
308.651	363.56
308.881	378.56
309.111	386.56
309.341	372.56
309.571	397.56
309.8	388.56
310.03	412.56
310.26	404.56
310.49	430.56
310.72	421.56
310.949	445.56
311.179	438.56
311.409	440.56
311.639	390.56
311.868	413.56
312.098	416.56
312.328	416.56
312.557	439.56
312.787	453.56
313.017	435.56
313.246	427.56
313.476	424.56
313.706	410.56
313.935	404.56
314.165	420.56
314.394	447.56
314.624	459.56
314.853	434.56
315.083	412.56
315.312	403.56
315.542	397.56
315.771	412.56
316.001	412.56
316.23	441.56
316.46	426.56
316.689	425.56
316.919	420.56
317.148	425.56
317.377	426.56
317.607	416.56
317.836	407.56
318.065	400.56
318.295	402.56
318.524	397.56
318.753	427.56
318.983	421.56
319.212	419.56
319.441	437.56
319.67	413.56
319.9	424.56
320.129	417.56
320.358	444.56
320.587	416.56
320.816	423.56
321.046	455.56
321.275	425.56
321.504	457.56
321.733	434.56
321.962	443.56
322.191	469.56
322.42	467.56
322.649	508.56
322.878	524.56
323.108	516.56
323.337	547.56
323.566	572.56
323.795	634.56
324.024	680.56
324.253	821.56
324.482	1209.56
324.71	1823.56
324.939	2640.56
325.168	2270.56
325.397	1189.56
325.626	786.56
325.855	671.56
326.084	612.56
326.313	590.56
326.542	584.56
326.77	636.56
326.999	772.56
327.228	1033.56
327.457	1574.56
327.686	1954.56
327.914	1331.56
328.143	904.56
328.372	765.56
328.6	720.56
328.829	668.56
329.058	666.56
329.287	695.56
329.515	647.56
329.744	614.56
329.972	589.56
330.201	640.56
330.43	698.56
330.658	709.56
330.887	731.56
331.115	676.56
331.344	597.56
331.572	562.56
331.801	546.56
332.03	569.56
332.258	530.56
332.486	516.56
332.715	519.56
332.943	518.56
333.172	512.56
333.4	522.56
333.629	536.56
333.857	538.56
334.085	548.56
334.314	589.56
334.542	652.56
334.771	691.56
334.999	593.56
335.227	540.56
335.455	515.56
335.684	500.56
335.912	473.56
336.14	482.56
336.369	500.56
336.597	495.56
336.825	482.56
337.053	488.56
337.281	486.56
337.51	458.56
337.738	483.56
337.966	483.56
338.194	467.56
338.422	476.56
338.65	467.56
338.878	462.56
339.106	466.56
339.334	463.56
339.562	460.56
339.79	468.56
340.018	459.56
340.246	468.56
340.474	463.56
340.702	479.56
340.93	464.56
341.158	440.56
341.386	463.56
341.614	449.56
341.842	459.56
342.07	449.56
342.298	438.56
342.526	435.56
342.754	441.56
342.981	430.56
343.209	442.56
343.437	448.56
343.665	457.56
343.893	452.56
344.12	479.56
344.348	439.56
344.576	446.56
344.804	444.56
345.031	466.56
345.259	471.56
345.487	474.56
345.714	455.56
345.942	462.56
346.17	463.56
346.397	441.56
346.625	430.56
346.853	449.56
347.08	436.56
347.308	471.56
347.535	455.56
347.763	451.56
347.99	468.56
348.218	458.56
348.445	452.56
348.673	456.56
348.9	438.56
349.128	443.56
349.355	425.56
349.583	433.56
349.81	445.56
350.037	410.56
350.265	422.56
350.492	420.56
350.72	430.56
350.947	439.56
351.174	462.56
351.402	478.56
351.629	462.56
351.856	446.56
352.083	429.56
352.311	472.56
352.538	463.56
352.765	453.56
352.992	475.56
353.22	462.56
353.447	459.56
353.674	434.56
353.901	423.56
354.128	428.56
354.355	418.56
354.583	423.56
354.81	403.56
355.037	393.56
355.264	392.56
355.491	394.56
355.718	388.56
355.945	416.56
356.172	403.56
356.399	410.56
356.626	378.56
356.853	389.56
357.08	387.56
357.307	394.56
357.534	397.56
357.761	422.56
357.988	386.56
358.215	413.56
358.441	416.56
358.668	398.56
358.895	419.56
359.122	428.56
359.349	428.56
359.576	455.56
359.802	479.56
360.029	459.56
360.256	475.56
360.483	484.56
360.709	459.56
360.936	453.56
361.163	425.56
361.39	448.56
361.616	446.56
361.843	460.56
362.07	441.56
362.296	442.56
362.523	421.56
362.749	434.56
362.976	433.56
363.203	428.56
363.429	421.56
363.656	431.56
363.882	410.56
364.109	410.56
364.335	396.56
364.562	418.56
364.788	422.56
365.015	419.56
365.241	426.56
365.468	428.56
365.694	410.56
365.92	409.56
366.147	420.56
366.373	411.56
366.599	410.56
366.826	403.56
367.052	424.56
367.278	418.56
367.505	417.56
367.731	401.56
367.957	413.56
368.184	436.56
368.41	420.56
368.636	415.56
368.862	432.56
369.089	426.56
369.315	414.56
369.541	428.56
369.767	406.56
369.993	399.56
370.219	414.56
370.445	415.56
370.672	384.56
370.898	412.56
371.124	402.56
371.35	401.56
371.576	365.56
371.802	372.56
372.028	389.56
372.254	388.56
372.48	408.56
372.706	404.56
372.932	392.56
373.158	400.56
373.384	393.56
373.61	404.56
373.835	399.56
374.061	388.56
374.287	396.56
374.513	393.56
374.739	394.56
374.965	428.56
375.191	397.56
375.416	414.56
375.642	390.56
375.868	392.56
376.094	389.56
376.319	379.56
376.545	388.56
376.771	404.56
376.997	397.56
377.222	386.56
377.448	396.56
377.674	397.56
377.899	378.56
378.125	397.56
378.35	393.56
378.576	408.56
378.802	398.56
379.027	399.56
379.253	395.56
379.478	380.56
379.704	379.56
379.929	399.56
380.155	380.56
380.38	396.56
380.606	413.56
380.831	382.56
381.057	403.56
381.282	393.56
381.507	392.56
381.733	384.56
381.958	381.56
382.184	383.56
382.409	402.56
382.634	400.56
382.86	406.56
383.085	396.56
383.31	410.56
383.535	411.56
383.761	424.56
383.986	405.56
384.211	440.56
384.436	416.56
384.662	404.56
384.887	381.56
385.112	391.56
385.337	416.56
385.562	424.56
385.787	408.56
386.013	436.56
386.238	445.56
386.463	410.56
386.688	398.56
386.913	404.56
387.138	424.56
387.363	419.56
387.588	425.56
387.813	404.56
388.038	402.56
388.263	426.56
388.488	412.56
388.713	413.56
388.938	435.56
389.163	431.56
389.387	404.56
389.612	401.56
389.837	404.56
390.062	426.56
390.287	424.56
390.512	417.56
390.736	435.56
390.961	442.56
391.186	423.56
391.411	404.56
391.636	405.56
391.86	424.56
392.085	443.56
392.31	412.56
392.534	417.56
392.759	428.56
392.984	416.56
393.208	397.56
393.433	406.56
393.658	399.56
393.882	402.56
394.107	408.56
394.331	449.56
394.556	414.56
394.78	438.56
395.005	419.56
395.229	406.56
395.454	404.56
395.678	444.56
395.903	429.56
396.127	468.56
396.352	444.56
396.576	412.56
396.801	428.56
397.025	420.56
397.249	443.56
397.474	437.56
397.698	434.56
397.922	432.56
398.147	457.56
398.371	466.56
398.595	467.56
398.82	451.56
399.044	473.56
399.268	482.56
399.492	491.56
399.717	514.56
399.941	551.56
400.165	564.56
400.389	567.56
400.613	542.56
400.837	483.56
401.062	477.56
401.286	478.56
401.51	466.56
401.734	460.56
401.958	469.56
402.182	470.56
402.406	473.56
402.63	487.56
402.854	482.56
403.078	462.56
403.302	463.56
403.526	510.56
403.75	487.56
403.974	472.56
404.198	483.56
404.422	506.56
404.645	518.56
404.869	506.56
405.093	547.56
405.317	589.56
405.541	650.56
405.765	564.56
405.988	550.56
406.212	537.56
406.436	563.56
406.66	569.56
406.883	506.56
407.107	565.56
407.331	597.56
407.555	637.56
407.778	639.56
408.002	607.56
408.226	546.56
408.449	544.56
408.673	549.56
408.896	569.56
409.12	606.56
409.344	576.56
409.567	555.56
409.791	498.56
410.014	500.56
410.238	464.56
410.461	482.56
410.685	505.56
410.908	492.56
411.132	562.56
411.355	562.56
411.578	548.56
411.802	502.56
412.025	493.56
412.249	517.56
412.472	531.56
412.695	570.56
412.919	612.56
413.142	517.56
413.365	510.56
413.589	501.56
413.812	481.56
414.035	468.56
414.258	484.56
414.482	466.56
414.705	468.56
414.928	451.56
415.151	450.56
415.374	436.56
415.597	457.56
415.821	440.56
416.044	466.56
416.267	470.56
416.49	441.56
416.713	463.56
416.936	461.56
417.159	469.56
417.382	459.56
417.605	454.56
417.828	473.56
418.051	494.56
418.274	473.56
418.497	478.56
418.72	472.56
418.943	457.56
419.166	473.56
419.389	477.56
419.611	473.56
419.834	479.56
420.057	492.56
420.28	502.56
420.503	516.56
420.726	508.56
420.948	505.56
421.171	550.56
421.394	581.56
421.617	506.56
421.839	498.56
422.062	476.56
422.285	500.56
422.507	552.56
422.73	638.56
422.953	608.56
423.175	554.56
423.398	507.56
423.621	505.56
423.843	527.56
424.066	530.56
424.288	523.56
424.511	559.56
424.733	611.56
424.956	690.56
425.178	644.56
425.401	666.56
425.623	672.56
425.846	582.56
426.068	556.56
426.291	540.56
426.513	536.56
426.735	534.56
426.958	577.56
427.18	660.56
427.402	790.56
427.625	886.56
427.847	792.56
428.069	702.56
428.292	615.56
428.514	541.56
428.736	492.56
428.958	512.56
429.181	491.56
429.403	496.56
429.625	506.56
429.847	529.56
430.069	584.56
430.292	594.56
430.514	519.56
430.736	470.56
430.958	492.56
431.18	460.56
431.402	456.56
431.624	443.56
431.846	456.56
432.068	465.56
432.29	456.56
432.512	463.56
432.734	458.56
432.956	476.56
433.178	495.56
433.4	476.56
433.622	469.56
433.844	452.56
434.066	451.56
434.287	463.56
434.509	457.56
434.731	442.56
434.953	462.56
435.175	471.56
435.397	534.56
435.618	531.56
435.84	591.56
436.062	704.56
436.284	749.56
436.505	609.56
436.727	530.56
436.949	516.56
437.17	486.56
437.392	491.56
437.614	504.56
437.835	555.56
438.057	643.56
438.278	775.56
438.5	748.56
438.721	792.56
438.943	773.56
439.165	629.56
439.386	608.56
439.608	536.56
439.829	553.56
440.05	590.56
440.272	645.56
440.493	598.56
440.715	533.56
440.936	520.56
441.158	500.56
441.379	493.56
441.6	508.56
441.822	533.56
442.043	572.56
442.264	672.56
442.486	690.56
442.707	624.56
442.928	545.56
443.149	545.56
443.371	580.56
443.592	613.56
443.813	698.56
444.034	781.56
444.255	631.56
444.476	549.56
444.698	548.56
444.919	508.56
445.14	678.56
445.361	619.56
445.582	566.56
445.803	660.56
446.024	736.56
446.245	761.56
446.466	685.56
446.687	595.56
446.908	550.56
447.129	505.56
447.35	512.56
447.571	507.56
447.792	507.56
448.013	518.56
448.234	533.56
448.455	589.56
448.675	704.56
448.896	807.56
449.117	680.56
449.338	657.56
449.559	727.56
449.779	840.56
450	654.56
450.221	541.56
450.442	498.56
450.662	494.56
450.883	484.56
451.104	507.56
451.324	518.56
451.545	461.56
451.766	457.56
451.986	445.56
452.207	441.56
452.428	443.56
452.648	460.56
452.869	448.56
453.089	433.56
453.31	468.56
453.53	459.56
453.751	440.56
453.971	425.56
454.192	496.56
454.412	438.56
454.633	436.56
454.853	411.56
455.073	429.56
455.294	447.56
455.514	551.56
455.734	523.56
455.955	460.56
456.175	412.56
456.395	389.56
456.616	390.56
456.836	417.56
457.056	408.56
457.276	383.56
457.497	413.56
457.717	402.56
457.937	408.56
458.157	454.56
458.377	443.56
458.598	452.56
458.818	528.56
459.038	620.56
459.258	620.56
459.478	510.56
459.698	481.56
459.918	451.56
460.138	440.56
460.358	455.56
460.578	453.56
460.798	454.56
461.018	464.56
461.238	440.56
461.458	439.56
461.678	435.56
461.898	430.56
462.118	455.56
462.338	468.56
462.558	468.56
462.777	453.56
462.997	483.56
463.217	473.56
463.437	494.56
463.657	462.56
463.876	484.56
464.096	473.56
464.316	471.56
464.536	470.56
464.755	485.56
464.975	489.56
465.195	532.56
465.414	620.56
465.634	533.56
465.854	483.56
466.073	476.56
466.293	467.56
466.512	457.56
466.732	417.56
466.951	460.56
467.171	422.56
467.391	442.56
467.61	465.56
467.829	448.56
468.049	438.56
468.268	485.56
468.488	456.56
468.707	439.56
468.927	418.56
469.146	424.56
469.365	430.56
469.585	441.56
469.804	446.56
470.023	459.56
470.243	451.56
470.462	457.56
470.681	453.56
470.901	450.56
471.12	438.56
471.339	467.56
471.558	459.56
471.777	442.56
471.997	444.56
472.216	471.56
472.435	540.56
472.654	494.56
472.873	452.56
473.092	450.56
473.311	472.56
473.53	462.56
473.749	456.56
473.968	489.56
474.187	618.56
474.406	634.56
474.625	547.56
474.844	466.56
475.063	436.56
475.282	457.56
475.501	463.56
475.72	461.56
475.939	473.56
476.158	465.56
476.377	460.56
476.596	468.56
476.814	469.56
477.033	493.56
477.252	474.56
477.471	469.56
477.69	465.56
477.908	477.56
478.127	483.56
478.346	492.56
478.564	489.56
478.783	494.56
479.002	505.56
479.22	514.56
479.439	523.56
479.658	546.56
479.876	545.56
480.095	526.56
480.313	570.56
480.532	577.56
480.751	539.56
480.969	572.56
481.188	682.56
481.406	757.56
481.624	625.56
481.843	561.56
482.061	562.56
482.28	537.56
482.498	543.56
482.717	525.56
482.935	517.56
483.153	517.56
483.372	531.56
483.59	515.56
483.808	544.56
484.027	522.56
484.245	554.56
484.463	531.56
484.681	533.56
484.9	534.56
485.118	523.56
485.336	521.56
485.554	528.56
485.772	560.56
485.99	550.56
486.209	551.56
486.427	554.56
486.645	572.56
486.863	578.56
487.081	586.56
487.299	557.56
487.517	583.56
487.735	564.56
487.953	583.56
488.171	562.56
488.389	560.56
488.607	570.56
488.825	582.56
489.043	566.56
489.261	591.56
489.479	585.56
489.696	615.56
489.914	594.56
490.132	589.56
490.35	608.56
490.568	600.56
490.786	621.56
491.003	616.56
491.221	636.56
491.439	654.56
491.657	647.56
491.874	660.56
492.092	672.56
492.31	659.56
492.527	659.56
492.745	665.56
492.963	673.56
493.18	697.56
493.398	701.56
493.615	705.56
493.833	700.56
494.05	679.56
494.268	706.56
494.485	658.56
494.703	676.56
494.92	698.56
495.138	681.56
495.355	686.56
495.573	708.56
495.79	658.56
496.008	668.56
496.225	683.56
496.442	690.56
496.66	678.56
496.877	668.56
497.094	684.56
497.312	701.56
497.529	710.56
497.746	699.56
497.963	701.56
498.181	749.56
498.398	726.56
498.615	750.56
498.832	736.56
499.049	754.56
499.267	739.56
499.484	778.56
499.701	788.56
499.918	795.56
500.135	841.56
500.352	881.56
500.569	840.56
500.786	892.56
501.003	892.56
501.22	881.56
501.437	813.56
501.654	807.56
501.871	843.56
