Data from 1989.PennyLincolnUp.Lamp.En5.5.200Scan.071819.P2_HRD10591_17-26-10-974.txt Node
Date: Thu Jul 18 17:26:10 EDT 2019
User: cochatt
Spectrometer: HR+D1059
Trigger mode: 1
Integration Time (sec): 1.000000E-1
Scans to average: 1
Electric dark correction enabled: true
Nonlinearity correction enabled: false
Boxcar width: 0
XAxis mode: Wavelengths
Number of Pixels in Spectrum: 2048
>>>>>Begin Spectral Data<<<<<
223.165	-16.38
223.4	-16.38
223.635	-16.38
223.869	-1.38
224.104	-3.38
224.338	-7.38
224.573	-9.38
224.808	-8.38
225.042	-19.38
225.277	-17.38
225.511	-12.38
225.746	12.62
225.98	7.62
226.215	8.62
226.449	19.62
226.683	16.62
226.918	7.62
227.152	22.62
227.387	41.62
227.621	18.62
227.856	38.62
228.09	38.62
228.324	42.62
228.559	34.62
228.793	60.62
229.027	106.62
229.262	116.62
229.496	118.62
229.73	147.62
229.964	167.62
230.199	132.62
230.433	102.62
230.667	110.62
230.901	107.62
231.136	118.62
231.37	116.62
231.604	131.62
231.838	114.62
232.072	108.62
232.306	121.62
232.541	103.62
232.775	116.62
233.009	119.62
233.243	128.62
233.477	112.62
233.711	120.62
233.945	125.62
234.179	111.62
234.413	121.62
234.647	120.62
234.881	137.62
235.115	123.62
235.349	133.62
235.583	112.62
235.817	123.62
236.051	131.62
236.285	122.62
236.519	122.62
236.753	131.62
236.987	158.62
237.221	218.62
237.455	272.62
237.689	205.62
237.922	155.62
238.156	140.62
238.39	135.62
238.624	131.62
238.858	121.62
239.091	107.62
239.325	134.62
239.559	114.62
239.793	136.62
240.027	138.62
240.26	150.62
240.494	156.62
240.728	175.62
240.961	139.62
241.195	148.62
241.429	143.62
241.662	148.62
241.896	130.62
242.13	137.62
242.363	143.62
242.597	135.62
242.83	150.62
243.064	156.62
243.298	128.62
243.531	131.62
243.765	141.62
243.998	155.62
244.232	157.62
244.465	171.62
244.699	166.62
244.932	153.62
245.166	151.62
245.399	147.62
245.633	150.62
245.866	161.62
246.099	162.62
246.333	155.62
246.566	161.62
246.8	168.62
247.033	155.62
247.266	169.62
247.5	185.62
247.733	174.62
247.966	184.62
248.2	177.62
248.433	180.62
248.666	197.62
248.899	204.62
249.133	230.62
249.366	244.62
249.599	233.62
249.832	194.62
250.066	212.62
250.299	212.62
250.532	226.62
250.765	248.62
250.998	248.62
251.231	264.62
251.465	254.62
251.698	243.62
251.931	223.62
252.164	223.62
252.397	225.62
252.63	213.62
252.863	215.62
253.096	244.62
253.329	244.62
253.562	259.62
253.795	256.62
254.028	259.62
254.261	248.62
254.494	271.62
254.727	275.62
254.96	315.62
255.193	304.62
255.426	298.62
255.659	272.62
255.892	280.62
256.124	299.62
256.357	294.62
256.59	306.62
256.823	286.62
257.056	248.62
257.289	255.62
257.521	243.62
257.754	223.62
257.987	248.62
258.22	250.62
258.452	225.62
258.685	235.62
258.918	241.62
259.151	258.62
259.383	240.62
259.616	243.62
259.849	262.62
260.081	260.62
260.314	258.62
260.547	303.62
260.779	268.62
261.012	269.62
261.244	252.62
261.477	265.62
261.71	264.62
261.942	268.62
262.175	283.62
262.407	270.62
262.64	248.62
262.872	228.62
263.105	244.62
263.337	232.62
263.57	241.62
263.802	245.62
264.035	257.62
264.267	241.62
264.499	232.62
264.732	236.62
264.964	233.62
265.197	232.62
265.429	227.62
265.661	252.62
265.894	234.62
266.126	246.62
266.358	249.62
266.591	249.62
266.823	243.62
267.055	240.62
267.287	258.62
267.52	248.62
267.752	244.62
267.984	238.62
268.216	238.62
268.448	253.62
268.681	256.62
268.913	267.62
269.145	276.62
269.377	314.62
269.609	319.62
269.841	289.62
270.073	314.62
270.306	332.62
270.538	335.62
270.77	360.62
271.002	338.62
271.234	332.62
271.466	328.62
271.698	363.62
271.93	373.62
272.162	330.62
272.394	345.62
272.626	319.62
272.858	335.62
273.09	329.62
273.322	315.62
273.553	298.62
273.785	292.62
274.017	291.62
274.249	284.62
274.481	296.62
274.713	309.62
274.945	312.62
275.176	307.62
275.408	296.62
275.64	299.62
275.872	290.62
276.104	297.62
276.335	304.62
276.567	311.62
276.799	324.62
277.031	351.62
277.262	370.62
277.494	360.62
277.726	334.62
277.957	321.62
278.189	318.62
278.421	284.62
278.652	321.62
278.884	290.62
279.115	315.62
279.347	306.62
279.579	313.62
279.81	302.62
280.042	292.62
280.273	304.62
280.505	307.62
280.736	296.62
280.968	302.62
281.199	297.62
281.431	290.62
281.662	289.62
281.894	288.62
282.125	290.62
282.356	323.62
282.588	349.62
282.819	347.62
283.051	306.62
283.282	289.62
283.513	305.62
283.745	311.62
283.976	314.62
284.207	311.62
284.439	304.62
284.67	308.62
284.901	294.62
285.132	281.62
285.364	298.62
285.595	306.62
285.826	298.62
286.057	307.62
286.288	327.62
286.52	302.62
286.751	318.62
286.982	305.62
287.213	310.62
287.444	313.62
287.675	331.62
287.906	316.62
288.138	313.62
288.369	325.62
288.6	313.62
288.831	309.62
289.062	324.62
289.293	338.62
289.524	319.62
289.755	329.62
289.986	322.62
290.217	302.62
290.448	321.62
290.679	313.62
290.91	298.62
291.141	312.62
291.371	318.62
291.602	317.62
291.833	314.62
292.064	311.62
292.295	319.62
292.526	318.62
292.757	338.62
292.987	327.62
293.218	312.62
293.449	321.62
293.68	308.62
293.91	316.62
294.141	316.62
294.372	302.62
294.603	310.62
294.833	327.62
295.064	329.62
295.295	320.62
295.525	353.62
295.756	330.62
295.987	317.62
296.217	354.62
296.448	362.62
296.679	322.62
296.909	326.62
297.14	332.62
297.37	339.62
297.601	322.62
297.831	306.62
298.062	322.62
298.292	354.62
298.523	334.62
298.753	332.62
298.984	316.62
299.214	341.62
299.445	315.62
299.675	322.62
299.905	346.62
300.136	335.62
300.366	323.62
300.597	334.62
300.827	348.62
301.057	328.62
301.288	347.62
301.518	348.62
301.748	321.62
301.979	334.62
302.209	346.62
302.439	342.62
302.669	344.62
302.9	339.62
303.13	345.62
303.36	359.62
303.59	353.62
303.82	355.62
304.051	370.62
304.281	351.62
304.511	343.62
304.741	359.62
304.971	338.62
305.201	349.62
305.431	363.62
305.661	336.62
305.891	349.62
306.121	361.62
306.352	351.62
306.582	380.62
306.812	370.62
307.042	347.62
307.272	377.62
307.502	361.62
307.731	353.62
307.961	361.62
308.191	355.62
308.421	358.62
308.651	356.62
308.881	358.62
309.111	366.62
309.341	368.62
309.571	390.62
309.8	400.62
310.03	391.62
310.26	409.62
310.49	421.62
310.72	410.62
310.949	437.62
311.179	431.62
311.409	434.62
311.639	421.62
311.868	432.62
312.098	419.62
312.328	416.62
312.557	425.62
312.787	434.62
313.017	464.62
313.246	433.62
313.476	399.62
313.706	406.62
313.935	408.62
314.165	426.62
314.394	445.62
314.624	444.62
314.853	431.62
315.083	424.62
315.312	420.62
315.542	406.62
315.771	409.62
316.001	402.62
316.23	391.62
316.46	398.62
316.689	406.62
316.919	410.62
317.148	406.62
317.377	415.62
317.607	438.62
317.836	419.62
318.065	401.62
318.295	430.62
318.524	403.62
318.753	411.62
318.983	414.62
319.212	409.62
319.441	421.62
319.67	425.62
319.9	432.62
320.129	430.62
320.358	421.62
320.587	436.62
320.816	452.62
321.046	459.62
321.275	454.62
321.504	438.62
321.733	455.62
321.962	459.62
322.191	486.62
322.42	496.62
322.649	508.62
322.878	524.62
323.108	529.62
323.337	553.62
323.566	603.62
323.795	619.62
324.024	676.62
324.253	833.62
324.482	1177.62
324.71	1814.62
324.939	2615.62
325.168	2260.62
325.397	1174.62
325.626	780.62
325.855	647.62
326.084	584.62
326.313	595.62
326.542	593.62
326.77	657.62
326.999	773.62
327.228	1044.62
327.457	1619.62
327.686	1972.62
327.914	1344.62
328.143	868.62
328.372	745.62
328.6	691.62
328.829	642.62
329.058	680.62
329.287	664.62
329.515	654.62
329.744	604.62
329.972	602.62
330.201	640.62
330.43	733.62
330.658	718.62
330.887	720.62
331.115	715.62
331.344	623.62
331.572	555.62
331.801	568.62
332.03	564.62
332.258	535.62
332.486	527.62
332.715	489.62
332.943	510.62
333.172	481.62
333.4	515.62
333.629	537.62
333.857	542.62
334.085	570.62
334.314	607.62
334.542	660.62
334.771	708.62
334.999	625.62
335.227	554.62
335.455	503.62
335.684	511.62
335.912	499.62
336.14	491.62
336.369	492.62
336.597	503.62
336.825	497.62
337.053	470.62
337.281	471.62
337.51	489.62
337.738	483.62
337.966	490.62
338.194	472.62
338.422	472.62
338.65	472.62
338.878	474.62
339.106	454.62
339.334	470.62
339.562	471.62
339.79	467.62
340.018	449.62
340.246	480.62
340.474	469.62
340.702	467.62
340.93	440.62
341.158	426.62
341.386	470.62
341.614	467.62
341.842	474.62
342.07	464.62
342.298	439.62
342.526	434.62
342.754	454.62
342.981	435.62
343.209	454.62
343.437	438.62
343.665	442.62
343.893	439.62
344.12	459.62
344.348	462.62
344.576	448.62
344.804	469.62
345.031	494.62
345.259	487.62
345.487	459.62
345.714	464.62
345.942	439.62
346.17	442.62
346.397	415.62
346.625	430.62
346.853	444.62
347.08	416.62
347.308	419.62
347.535	460.62
347.763	442.62
347.99	461.62
348.218	452.62
348.445	447.62
348.673	472.62
348.9	424.62
349.128	434.62
349.355	427.62
349.583	413.62
349.81	427.62
350.037	411.62
350.265	438.62
350.492	420.62
350.72	436.62
350.947	424.62
351.174	440.62
351.402	434.62
351.629	453.62
351.856	452.62
352.083	456.62
352.311	459.62
352.538	457.62
352.765	456.62
352.992	433.62
353.22	426.62
353.447	425.62
353.674	421.62
353.901	412.62
354.128	420.62
354.355	418.62
354.583	415.62
354.81	420.62
355.037	423.62
355.264	396.62
355.491	402.62
355.718	390.62
355.945	385.62
356.172	400.62
356.399	400.62
356.626	379.62
356.853	409.62
357.08	391.62
357.307	392.62
357.534	416.62
357.761	407.62
357.988	409.62
358.215	401.62
358.441	397.62
358.668	393.62
358.895	417.62
359.122	416.62
359.349	423.62
359.576	433.62
359.802	460.62
360.029	466.62
360.256	502.62
360.483	488.62
360.709	430.62
360.936	451.62
361.163	428.62
361.39	435.62
361.616	443.62
361.843	401.62
362.07	433.62
362.296	460.62
362.523	433.62
362.749	419.62
362.976	408.62
363.203	417.62
363.429	426.62
363.656	405.62
363.882	416.62
364.109	407.62
364.335	408.62
364.562	407.62
364.788	395.62
365.015	414.62
365.241	414.62
365.468	400.62
365.694	437.62
365.92	442.62
366.147	409.62
366.373	396.62
366.599	401.62
366.826	412.62
367.052	411.62
367.278	388.62
367.505	414.62
367.731	390.62
367.957	395.62
368.184	406.62
368.41	415.62
368.636	425.62
368.862	399.62
369.089	407.62
369.315	414.62
369.541	407.62
369.767	393.62
369.993	409.62
370.219	397.62
370.445	391.62
370.672	405.62
370.898	397.62
371.124	390.62
371.35	389.62
371.576	397.62
371.802	394.62
372.028	410.62
372.254	399.62
372.48	396.62
372.706	398.62
372.932	404.62
373.158	420.62
373.384	407.62
373.61	418.62
373.835	391.62
374.061	388.62
374.287	397.62
374.513	403.62
374.739	395.62
374.965	425.62
375.191	390.62
375.416	394.62
375.642	410.62
375.868	400.62
376.094	395.62
376.319	390.62
376.545	392.62
376.771	408.62
376.997	380.62
377.222	391.62
377.448	384.62
377.674	378.62
377.899	382.62
378.125	370.62
378.35	385.62
378.576	382.62
378.802	359.62
379.027	378.62
379.253	397.62
379.478	391.62
379.704	391.62
379.929	388.62
380.155	385.62
380.38	390.62
380.606	374.62
380.831	403.62
381.057	383.62
381.282	400.62
381.507	396.62
381.733	394.62
381.958	387.62
382.184	400.62
382.409	393.62
382.634	396.62
382.86	389.62
383.085	400.62
383.31	404.62
383.535	410.62
383.761	410.62
383.986	388.62
384.211	404.62
384.436	380.62
384.662	407.62
384.887	404.62
385.112	402.62
385.337	396.62
385.562	421.62
385.787	416.62
386.013	436.62
386.238	436.62
386.463	423.62
386.688	413.62
386.913	412.62
387.138	396.62
387.363	418.62
387.588	424.62
387.813	410.62
388.038	414.62
388.263	432.62
388.488	421.62
388.713	426.62
388.938	412.62
389.163	430.62
389.387	430.62
389.612	409.62
389.837	400.62
390.062	402.62
390.287	392.62
390.512	409.62
390.736	410.62
390.961	404.62
391.186	406.62
391.411	423.62
391.636	426.62
391.86	410.62
392.085	419.62
392.31	410.62
392.534	402.62
392.759	429.62
392.984	415.62
393.208	423.62
393.433	420.62
393.658	412.62
393.882	423.62
394.107	407.62
394.331	424.62
394.556	422.62
394.78	405.62
395.005	419.62
395.229	420.62
395.454	420.62
395.678	439.62
395.903	434.62
396.127	459.62
396.352	466.62
396.576	448.62
396.801	422.62
397.025	415.62
397.249	434.62
397.474	420.62
397.698	439.62
397.922	452.62
398.147	466.62
398.371	472.62
398.595	454.62
398.82	451.62
399.044	472.62
399.268	460.62
399.492	485.62
399.717	508.62
399.941	549.62
400.165	574.62
400.389	596.62
400.613	540.62
400.837	485.62
401.062	490.62
401.286	469.62
401.51	463.62
401.734	453.62
401.958	444.62
402.182	479.62
402.406	490.62
402.63	492.62
402.854	486.62
403.078	471.62
403.302	456.62
403.526	487.62
403.75	484.62
403.974	489.62
404.198	473.62
404.422	491.62
404.645	517.62
404.869	520.62
405.093	572.62
405.317	607.62
405.541	630.62
405.765	571.62
405.988	533.62
406.212	519.62
406.436	554.62
406.66	551.62
406.883	555.62
407.107	562.62
407.331	583.62
407.555	649.62
407.778	656.62
408.002	591.62
408.226	547.62
408.449	528.62
408.673	512.62
408.896	586.62
409.12	616.62
409.344	556.62
409.567	521.62
409.791	499.62
410.014	458.62
410.238	494.62
410.461	493.62
410.685	489.62
410.908	514.62
411.132	549.62
411.355	584.62
411.578	569.62
411.802	518.62
412.025	502.62
412.249	512.62
412.472	559.62
412.695	592.62
412.919	594.62
413.142	524.62
413.365	483.62
413.589	490.62
413.812	500.62
414.035	463.62
414.258	444.62
414.482	456.62
414.705	473.62
414.928	439.62
415.151	450.62
415.374	444.62
415.597	448.62
415.821	441.62
416.044	445.62
416.267	471.62
416.49	464.62
416.713	463.62
416.936	464.62
417.159	447.62
417.382	458.62
417.605	470.62
417.828	504.62
418.051	506.62
418.274	472.62
418.497	475.62
418.72	475.62
418.943	466.62
419.166	481.62
419.389	490.62
419.611	471.62
419.834	512.62
420.057	498.62
420.28	511.62
420.503	508.62
420.726	520.62
420.948	509.62
421.171	549.62
421.394	566.62
421.617	500.62
421.839	497.62
422.062	490.62
422.285	489.62
422.507	547.62
422.73	628.62
422.953	626.62
423.175	548.62
423.398	510.62
423.621	503.62
423.843	514.62
424.066	524.62
424.288	517.62
424.511	544.62
424.733	589.62
424.956	697.62
425.178	638.62
425.401	658.62
425.623	687.62
425.846	576.62
426.068	531.62
426.291	528.62
426.513	516.62
426.735	530.62
426.958	598.62
427.18	674.62
427.402	798.62
427.625	896.62
427.847	798.62
428.069	703.62
428.292	614.62
428.514	548.62
428.736	523.62
428.958	478.62
429.181	512.62
429.403	456.62
429.625	486.62
429.847	564.62
430.069	617.62
430.292	591.62
430.514	523.62
430.736	491.62
430.958	468.62
431.18	466.62
431.402	458.62
431.624	447.62
431.846	450.62
432.068	467.62
432.29	448.62
432.512	468.62
432.734	457.62
432.956	456.62
433.178	489.62
433.4	470.62
433.622	460.62
433.844	443.62
434.066	443.62
434.287	458.62
434.509	454.62
434.731	456.62
434.953	475.62
435.175	471.62
435.397	500.62
435.618	555.62
435.84	556.62
436.062	660.62
436.284	730.62
436.505	612.62
436.727	558.62
436.949	511.62
437.17	495.62
437.392	491.62
437.614	531.62
437.835	552.62
438.057	629.62
438.278	742.62
438.5	735.62
438.721	800.62
438.943	780.62
439.165	610.62
439.386	563.62
439.608	567.62
439.829	546.62
440.05	586.62
440.272	638.62
440.493	578.62
440.715	522.62
440.936	487.62
441.158	498.62
441.379	483.62
441.6	506.62
441.822	498.62
442.043	563.62
442.264	664.62
442.486	712.62
442.707	590.62
442.928	548.62
443.149	545.62
443.371	552.62
443.592	625.62
443.813	696.62
444.034	757.62
444.255	640.62
444.476	552.62
444.698	531.62
444.919	507.62
445.14	664.62
445.361	599.62
445.582	602.62
445.803	634.62
446.024	778.62
446.245	783.62
446.466	677.62
446.687	601.62
446.908	553.62
447.129	505.62
447.35	485.62
447.571	509.62
447.792	491.62
448.013	500.62
448.234	502.62
448.455	592.62
448.675	681.62
448.896	809.62
449.117	705.62
449.338	643.62
449.559	752.62
449.779	854.62
450	672.62
450.221	564.62
450.442	513.62
450.662	475.62
450.883	497.62
451.104	490.62
451.324	473.62
451.545	470.62
451.766	456.62
451.986	426.62
452.207	414.62
452.428	456.62
452.648	448.62
452.869	443.62
453.089	449.62
453.31	444.62
453.53	457.62
453.751	450.62
453.971	444.62
454.192	466.62
454.412	453.62
454.633	448.62
454.853	435.62
455.073	417.62
455.294	465.62
455.514	533.62
455.734	521.62
455.955	444.62
456.175	416.62
456.395	423.62
456.616	421.62
456.836	411.62
457.056	397.62
457.276	388.62
457.497	393.62
457.717	405.62
457.937	402.62
458.157	432.62
458.377	441.62
458.598	464.62
458.818	501.62
459.038	579.62
459.258	601.62
459.478	494.62
459.698	479.62
459.918	435.62
460.138	465.62
460.358	449.62
460.578	427.62
460.798	438.62
461.018	470.62
461.238	445.62
461.458	464.62
461.678	446.62
461.898	453.62
462.118	467.62
462.338	447.62
462.558	471.62
462.777	458.62
462.997	455.62
463.217	469.62
463.437	468.62
463.657	467.62
463.876	456.62
464.096	468.62
464.316	456.62
464.536	478.62
464.755	487.62
464.975	492.62
465.195	547.62
465.414	625.62
465.634	524.62
465.854	487.62
466.073	469.62
466.293	456.62
466.512	430.62
466.732	452.62
466.951	444.62
467.171	440.62
467.391	450.62
467.61	440.62
467.829	452.62
468.049	455.62
468.268	463.62
468.488	455.62
468.707	433.62
468.927	422.62
469.146	423.62
469.365	438.62
469.585	417.62
469.804	431.62
470.023	448.62
470.243	433.62
470.462	450.62
470.681	467.62
470.901	461.62
471.12	457.62
471.339	446.62
471.558	446.62
471.777	460.62
471.997	448.62
472.216	466.62
472.435	532.62
472.654	525.62
472.873	471.62
473.092	455.62
473.311	451.62
473.53	455.62
473.749	470.62
473.968	501.62
474.187	621.62
474.406	647.62
474.625	509.62
474.844	473.62
475.063	461.62
475.282	442.62
475.501	447.62
475.72	454.62
475.939	454.62
476.158	458.62
476.377	459.62
476.596	440.62
476.814	464.62
477.033	471.62
477.252	478.62
477.471	472.62
477.69	473.62
477.908	474.62
478.127	500.62
478.346	469.62
478.564	460.62
478.783	501.62
479.002	521.62
479.22	487.62
479.439	534.62
479.658	516.62
479.876	554.62
480.095	537.62
480.313	580.62
480.532	562.62
480.751	552.62
480.969	563.62
481.188	698.62
481.406	752.62
481.624	635.62
481.843	603.62
482.061	557.62
482.28	555.62
482.498	563.62
482.717	528.62
482.935	540.62
483.153	528.62
483.372	529.62
483.59	528.62
483.808	543.62
484.027	539.62
484.245	530.62
484.463	528.62
484.681	540.62
484.9	546.62
485.118	525.62
485.336	553.62
485.554	551.62
485.772	544.62
485.99	554.62
486.209	547.62
486.427	560.62
486.645	580.62
486.863	592.62
487.081	576.62
487.299	579.62
487.517	571.62
487.735	566.62
487.953	570.62
488.171	556.62
488.389	586.62
488.607	587.62
488.825	567.62
489.043	585.62
489.261	598.62
489.479	599.62
489.696	592.62
489.914	600.62
490.132	582.62
490.35	599.62
490.568	594.62
490.786	614.62
491.003	626.62
491.221	635.62
491.439	628.62
491.657	637.62
491.874	694.62
492.092	664.62
492.31	677.62
492.527	676.62
492.745	674.62
492.963	674.62
493.18	671.62
493.398	665.62
493.615	693.62
493.833	675.62
494.05	688.62
494.268	683.62
494.485	679.62
494.703	686.62
494.92	686.62
495.138	697.62
495.355	694.62
495.573	675.62
495.79	683.62
496.008	670.62
496.225	695.62
496.442	702.62
496.66	677.62
496.877	686.62
497.094	692.62
497.312	698.62
497.529	679.62
497.746	684.62
497.963	692.62
498.181	726.62
498.398	714.62
498.615	740.62
498.832	746.62
499.049	751.62
499.267	756.62
499.484	790.62
499.701	790.62
499.918	792.62
500.135	821.62
500.352	834.62
500.569	860.62
500.786	896.62
501.003	830.62
501.22	854.62
501.437	860.62
501.654	835.62
501.871	825.62
