Data from 1989.PennyLincolnUp.Lamp.En5.5.200Scan.071819.P2_HRD10591_17-23-53-975.txt Node
Date: Thu Jul 18 17:23:53 EDT 2019
User: cochatt
Spectrometer: HR+D1059
Trigger mode: 1
Integration Time (sec): 1.000000E-1
Scans to average: 1
Electric dark correction enabled: true
Nonlinearity correction enabled: false
Boxcar width: 0
XAxis mode: Wavelengths
Number of Pixels in Spectrum: 2048
>>>>>Begin Spectral Data<<<<<
223.165	-12.94
223.4	-12.94
223.635	-12.94
223.869	-14.94
224.104	-26.94
224.338	-14.94
224.573	-13.94
224.808	-8.94
225.042	-4.94
225.277	-18.94
225.511	-6.94
225.746	15.06
225.98	8.06
226.215	6.06
226.449	24.06
226.683	18.06
226.918	27.06
227.152	25.06
227.387	21.06
227.621	32.06
227.856	41.06
228.09	48.06
228.324	50.06
228.559	52.06
228.793	62.06
229.027	101.06
229.262	113.06
229.496	122.06
229.73	131.06
229.964	134.06
230.199	128.06
230.433	106.06
230.667	108.06
230.901	124.06
231.136	114.06
231.37	119.06
231.604	124.06
231.838	115.06
232.072	103.06
232.306	134.06
232.541	116.06
232.775	118.06
233.009	120.06
233.243	109.06
233.477	122.06
233.711	128.06
233.945	98.06
234.179	117.06
234.413	121.06
234.647	117.06
234.881	120.06
235.115	129.06
235.349	139.06
235.583	130.06
235.817	120.06
236.051	131.06
236.285	130.06
236.519	130.06
236.753	120.06
236.987	138.06
237.221	187.06
237.455	238.06
237.689	190.06
237.922	145.06
238.156	142.06
238.39	140.06
238.624	127.06
238.858	129.06
239.091	131.06
239.325	126.06
239.559	136.06
239.793	132.06
240.027	135.06
240.26	140.06
240.494	158.06
240.728	155.06
240.961	165.06
241.195	156.06
241.429	138.06
241.662	140.06
241.896	133.06
242.13	153.06
242.363	137.06
242.597	142.06
242.83	142.06
243.064	154.06
243.298	153.06
243.531	141.06
243.765	146.06
243.998	156.06
244.232	148.06
244.465	152.06
244.699	148.06
244.932	154.06
245.166	153.06
245.399	145.06
245.633	156.06
245.866	153.06
246.099	164.06
246.333	162.06
246.566	151.06
246.8	156.06
247.033	153.06
247.266	160.06
247.5	173.06
247.733	174.06
247.966	184.06
248.2	183.06
248.433	186.06
248.666	193.06
248.899	194.06
249.133	221.06
249.366	214.06
249.599	224.06
249.832	204.06
250.066	197.06
250.299	203.06
250.532	192.06
250.765	221.06
250.998	245.06
251.231	242.06
251.465	234.06
251.698	201.06
251.931	207.06
252.164	199.06
252.397	194.06
252.63	216.06
252.863	212.06
253.096	236.06
253.329	243.06
253.562	248.06
253.795	236.06
254.028	244.06
254.261	224.06
254.494	251.06
254.727	283.06
254.96	296.06
255.193	275.06
255.426	278.06
255.659	245.06
255.892	249.06
256.124	242.06
256.357	216.06
256.59	224.06
256.823	233.06
257.056	240.06
257.289	233.06
257.521	226.06
257.754	237.06
257.987	229.06
258.22	225.06
258.452	213.06
258.685	229.06
258.918	229.06
259.151	228.06
259.383	233.06
259.616	250.06
259.849	238.06
260.081	248.06
260.314	277.06
260.547	291.06
260.779	267.06
261.012	246.06
261.244	243.06
261.477	238.06
261.71	251.06
261.942	233.06
262.175	233.06
262.407	241.06
262.64	229.06
262.872	220.06
263.105	230.06
263.337	221.06
263.57	227.06
263.802	225.06
264.035	229.06
264.267	214.06
264.499	233.06
264.732	216.06
264.964	215.06
265.197	240.06
265.429	234.06
265.661	230.06
265.894	240.06
266.126	220.06
266.358	247.06
266.591	236.06
266.823	219.06
267.055	236.06
267.287	244.06
267.52	248.06
267.752	242.06
267.984	254.06
268.216	250.06
268.448	269.06
268.681	241.06
268.913	259.06
269.145	271.06
269.377	285.06
269.609	290.06
269.841	297.06
270.073	290.06
270.306	310.06
270.538	334.06
270.77	345.06
271.002	333.06
271.234	324.06
271.466	334.06
271.698	330.06
271.93	354.06
272.162	352.06
272.394	348.06
272.626	345.06
272.858	292.06
273.09	320.06
273.322	290.06
273.553	284.06
273.785	288.06
274.017	307.06
274.249	274.06
274.481	288.06
274.713	285.06
274.945	274.06
275.176	287.06
275.408	268.06
275.64	280.06
275.872	285.06
276.104	272.06
276.335	296.06
276.567	285.06
276.799	306.06
277.031	324.06
277.262	337.06
277.494	331.06
277.726	327.06
277.957	306.06
278.189	283.06
278.421	294.06
278.652	292.06
278.884	298.06
279.115	281.06
279.347	295.06
279.579	284.06
279.81	292.06
280.042	277.06
280.273	281.06
280.505	278.06
280.736	256.06
280.968	282.06
281.199	278.06
281.431	278.06
281.662	290.06
281.894	282.06
282.125	276.06
282.356	293.06
282.588	317.06
282.819	333.06
283.051	298.06
283.282	279.06
283.513	281.06
283.745	290.06
283.976	305.06
284.207	302.06
284.439	305.06
284.67	304.06
284.901	296.06
285.132	298.06
285.364	293.06
285.595	299.06
285.826	294.06
286.057	283.06
286.288	270.06
286.52	307.06
286.751	301.06
286.982	305.06
287.213	296.06
287.444	296.06
287.675	283.06
287.906	306.06
288.138	326.06
288.369	314.06
288.6	313.06
288.831	313.06
289.062	327.06
289.293	311.06
289.524	302.06
289.755	323.06
289.986	308.06
290.217	289.06
290.448	285.06
290.679	314.06
290.91	312.06
291.141	304.06
291.371	312.06
291.602	297.06
291.833	304.06
292.064	297.06
292.295	298.06
292.526	318.06
292.757	298.06
292.987	295.06
293.218	306.06
293.449	299.06
293.68	298.06
293.91	289.06
294.141	320.06
294.372	300.06
294.603	306.06
294.833	304.06
295.064	316.06
295.295	324.06
295.525	295.06
295.756	322.06
295.987	313.06
296.217	326.06
296.448	342.06
296.679	323.06
296.909	318.06
297.14	304.06
297.37	299.06
297.601	322.06
297.831	324.06
298.062	322.06
298.292	333.06
298.523	321.06
298.753	327.06
298.984	314.06
299.214	331.06
299.445	315.06
299.675	325.06
299.905	333.06
300.136	350.06
300.366	314.06
300.597	314.06
300.827	321.06
301.057	306.06
301.288	347.06
301.518	345.06
301.748	329.06
301.979	349.06
302.209	335.06
302.439	338.06
302.669	346.06
302.9	343.06
303.13	340.06
303.36	357.06
303.59	341.06
303.82	347.06
304.051	355.06
304.281	351.06
304.511	341.06
304.741	357.06
304.971	339.06
305.201	349.06
305.431	366.06
305.661	357.06
305.891	365.06
306.121	355.06
306.352	347.06
306.582	351.06
306.812	345.06
307.042	363.06
307.272	326.06
307.502	351.06
307.731	349.06
307.961	371.06
308.191	356.06
308.421	351.06
308.651	343.06
308.881	357.06
309.111	360.06
309.341	362.06
309.571	378.06
309.8	362.06
310.03	385.06
310.26	404.06
310.49	409.06
310.72	408.06
310.949	418.06
311.179	410.06
311.409	400.06
311.639	387.06
311.868	396.06
312.098	425.06
312.328	420.06
312.557	418.06
312.787	418.06
313.017	432.06
313.246	410.06
313.476	416.06
313.706	401.06
313.935	390.06
314.165	445.06
314.394	427.06
314.624	417.06
314.853	388.06
315.083	396.06
315.312	403.06
315.542	406.06
315.771	391.06
316.001	369.06
316.23	376.06
316.46	390.06
316.689	374.06
316.919	397.06
317.148	418.06
317.377	398.06
317.607	426.06
317.836	407.06
318.065	386.06
318.295	407.06
318.524	401.06
318.753	402.06
318.983	419.06
319.212	393.06
319.441	422.06
319.67	402.06
319.9	412.06
320.129	381.06
320.358	394.06
320.587	403.06
320.816	421.06
321.046	422.06
321.275	446.06
321.504	428.06
321.733	424.06
321.962	440.06
322.191	446.06
322.42	453.06
322.649	478.06
322.878	481.06
323.108	474.06
323.337	509.06
323.566	528.06
323.795	569.06
324.024	635.06
324.253	742.06
324.482	1088.06
324.71	1666.06
324.939	2380.06
325.168	2119.06
325.397	1099.06
325.626	714.06
325.855	609.06
326.084	553.06
326.313	566.06
326.542	542.06
326.77	587.06
326.999	713.06
327.228	961.06
327.457	1464.06
327.686	1778.06
327.914	1179.06
328.143	772.06
328.372	636.06
328.6	606.06
328.829	612.06
329.058	597.06
329.287	594.06
329.515	577.06
329.744	519.06
329.972	509.06
330.201	506.06
330.43	540.06
330.658	587.06
330.887	623.06
331.115	602.06
331.344	536.06
331.572	532.06
331.801	521.06
332.03	505.06
332.258	469.06
332.486	476.06
332.715	448.06
332.943	463.06
333.172	464.06
333.4	477.06
333.629	482.06
333.857	484.06
334.085	467.06
334.314	456.06
334.542	467.06
334.771	473.06
334.999	482.06
335.227	455.06
335.455	472.06
335.684	459.06
335.912	463.06
336.14	458.06
336.369	439.06
336.597	444.06
336.825	460.06
337.053	465.06
337.281	468.06
337.51	432.06
337.738	458.06
337.966	455.06
338.194	463.06
338.422	452.06
338.65	458.06
338.878	452.06
339.106	445.06
339.334	453.06
339.562	450.06
339.79	433.06
340.018	433.06
340.246	454.06
340.474	461.06
340.702	458.06
340.93	455.06
341.158	446.06
341.386	433.06
341.614	455.06
341.842	436.06
342.07	454.06
342.298	420.06
342.526	423.06
342.754	413.06
342.981	414.06
343.209	437.06
343.437	430.06
343.665	451.06
343.893	454.06
344.12	442.06
344.348	437.06
344.576	437.06
344.804	450.06
345.031	459.06
345.259	492.06
345.487	426.06
345.714	438.06
345.942	428.06
346.17	423.06
346.397	436.06
346.625	438.06
346.853	430.06
347.08	413.06
347.308	441.06
347.535	426.06
347.763	459.06
347.99	442.06
348.218	438.06
348.445	441.06
348.673	448.06
348.9	436.06
349.128	435.06
349.355	410.06
349.583	401.06
349.81	407.06
350.037	385.06
350.265	415.06
350.492	408.06
350.72	416.06
350.947	429.06
351.174	416.06
351.402	420.06
351.629	446.06
351.856	435.06
352.083	426.06
352.311	422.06
352.538	443.06
352.765	432.06
352.992	421.06
353.22	434.06
353.447	426.06
353.674	412.06
353.901	416.06
354.128	397.06
354.355	386.06
354.583	406.06
354.81	386.06
355.037	386.06
355.264	401.06
355.491	377.06
355.718	382.06
355.945	373.06
356.172	379.06
356.399	402.06
356.626	392.06
356.853	393.06
357.08	378.06
357.307	397.06
357.534	384.06
357.761	388.06
357.988	395.06
358.215	389.06
358.441	387.06
358.668	380.06
358.895	394.06
359.122	393.06
359.349	393.06
359.576	413.06
359.802	438.06
360.029	463.06
360.256	466.06
360.483	477.06
360.709	438.06
360.936	426.06
361.163	399.06
361.39	409.06
361.616	424.06
361.843	415.06
362.07	406.06
362.296	425.06
362.523	437.06
362.749	413.06
362.976	411.06
363.203	408.06
363.429	401.06
363.656	392.06
363.882	402.06
364.109	415.06
364.335	383.06
364.562	398.06
364.788	407.06
365.015	412.06
365.241	409.06
365.468	396.06
365.694	402.06
365.92	419.06
366.147	402.06
366.373	390.06
366.599	395.06
366.826	401.06
367.052	376.06
367.278	398.06
367.505	384.06
367.731	408.06
367.957	404.06
368.184	413.06
368.41	418.06
368.636	414.06
368.862	401.06
369.089	371.06
369.315	396.06
369.541	388.06
369.767	410.06
369.993	390.06
370.219	379.06
370.445	391.06
370.672	387.06
370.898	391.06
371.124	402.06
371.35	394.06
371.576	390.06
371.802	395.06
372.028	395.06
372.254	393.06
372.48	412.06
372.706	391.06
372.932	398.06
373.158	378.06
373.384	394.06
373.61	397.06
373.835	384.06
374.061	389.06
374.287	398.06
374.513	390.06
374.739	413.06
374.965	408.06
375.191	400.06
375.416	392.06
375.642	387.06
375.868	408.06
376.094	382.06
376.319	382.06
376.545	391.06
376.771	396.06
376.997	404.06
377.222	372.06
377.448	376.06
377.674	370.06
377.899	364.06
378.125	382.06
378.35	381.06
378.576	377.06
378.802	396.06
379.027	400.06
379.253	384.06
379.478	388.06
379.704	371.06
379.929	381.06
380.155	393.06
380.38	397.06
380.606	387.06
380.831	390.06
381.057	393.06
381.282	392.06
381.507	411.06
381.733	380.06
381.958	385.06
382.184	386.06
382.409	390.06
382.634	404.06
382.86	400.06
383.085	390.06
383.31	398.06
383.535	397.06
383.761	389.06
383.986	395.06
384.211	395.06
384.436	414.06
384.662	403.06
384.887	397.06
385.112	406.06
385.337	418.06
385.562	416.06
385.787	403.06
386.013	425.06
386.238	404.06
386.463	418.06
386.688	420.06
386.913	414.06
387.138	406.06
387.363	413.06
387.588	426.06
387.813	409.06
388.038	422.06
388.263	434.06
388.488	419.06
388.713	421.06
388.938	402.06
389.163	414.06
389.387	424.06
389.612	410.06
389.837	419.06
390.062	392.06
390.287	406.06
390.512	402.06
390.736	418.06
390.961	416.06
391.186	403.06
391.411	408.06
391.636	398.06
391.86	414.06
392.085	410.06
392.31	421.06
392.534	386.06
392.759	416.06
392.984	410.06
393.208	414.06
393.433	399.06
393.658	408.06
393.882	402.06
394.107	423.06
394.331	424.06
394.556	405.06
394.78	415.06
395.005	432.06
395.229	439.06
395.454	416.06
395.678	421.06
395.903	422.06
396.127	440.06
396.352	454.06
396.576	429.06
396.801	411.06
397.025	430.06
397.249	414.06
397.474	436.06
397.698	427.06
397.922	448.06
398.147	468.06
398.371	466.06
398.595	439.06
398.82	453.06
399.044	473.06
399.268	482.06
399.492	499.06
399.717	518.06
399.941	528.06
400.165	570.06
400.389	576.06
400.613	521.06
400.837	474.06
401.062	466.06
401.286	467.06
401.51	467.06
401.734	459.06
401.958	452.06
402.182	463.06
402.406	469.06
402.63	478.06
402.854	483.06
403.078	475.06
403.302	478.06
403.526	480.06
403.75	480.06
403.974	476.06
404.198	468.06
404.422	462.06
404.645	462.06
404.869	480.06
405.093	492.06
405.317	519.06
405.541	533.06
405.765	526.06
405.988	491.06
406.212	529.06
406.436	542.06
406.66	556.06
406.883	536.06
407.107	541.06
407.331	581.06
407.555	621.06
407.778	639.06
408.002	574.06
408.226	556.06
408.449	530.06
408.673	534.06
408.896	539.06
409.12	589.06
409.344	565.06
409.567	506.06
409.791	515.06
410.014	470.06
410.238	451.06
410.461	484.06
410.685	480.06
410.908	493.06
411.132	541.06
411.355	574.06
411.578	527.06
411.802	509.06
412.025	462.06
412.249	469.06
412.472	489.06
412.695	485.06
412.919	488.06
413.142	477.06
413.365	463.06
413.589	469.06
413.812	453.06
414.035	450.06
414.258	447.06
414.482	430.06
414.705	454.06
414.928	460.06
415.151	449.06
415.374	432.06
415.597	441.06
415.821	446.06
416.044	446.06
416.267	472.06
416.49	444.06
416.713	450.06
416.936	458.06
417.159	446.06
417.382	460.06
417.605	457.06
417.828	454.06
418.051	450.06
418.274	465.06
418.497	465.06
418.72	462.06
418.943	465.06
419.166	473.06
419.389	482.06
419.611	470.06
419.834	462.06
420.057	475.06
420.28	460.06
420.503	458.06
420.726	472.06
420.948	474.06
421.171	525.06
421.394	564.06
421.617	510.06
421.839	471.06
422.062	476.06
422.285	497.06
422.507	535.06
422.73	621.06
422.953	576.06
423.175	522.06
423.398	521.06
423.621	501.06
423.843	514.06
424.066	518.06
424.288	532.06
424.511	535.06
424.733	606.06
424.956	675.06
425.178	627.06
425.401	646.06
425.623	674.06
425.846	569.06
426.068	521.06
426.291	500.06
426.513	520.06
426.735	539.06
426.958	567.06
427.18	651.06
427.402	751.06
427.625	875.06
427.847	750.06
428.069	636.06
428.292	550.06
428.514	519.06
428.736	507.06
428.958	515.06
429.181	488.06
429.403	498.06
429.625	479.06
429.847	520.06
430.069	566.06
430.292	591.06
430.514	499.06
430.736	480.06
430.958	470.06
431.18	444.06
431.402	446.06
431.624	464.06
431.846	432.06
432.068	427.06
432.29	453.06
432.512	461.06
432.734	463.06
432.956	455.06
433.178	456.06
433.4	458.06
433.622	466.06
433.844	462.06
434.066	432.06
434.287	459.06
434.509	454.06
434.731	459.06
434.953	461.06
435.175	479.06
435.397	497.06
435.618	521.06
435.84	535.06
436.062	636.06
436.284	708.06
436.505	611.06
436.727	565.06
436.949	476.06
437.17	488.06
437.392	476.06
437.614	487.06
437.835	551.06
438.057	626.06
438.278	738.06
438.5	718.06
438.721	798.06
438.943	757.06
439.165	588.06
439.386	548.06
439.608	533.06
439.829	521.06
440.05	544.06
440.272	594.06
440.493	579.06
440.715	516.06
440.936	501.06
441.158	489.06
441.379	466.06
441.6	493.06
441.822	520.06
442.043	560.06
442.264	652.06
442.486	677.06
442.707	594.06
442.928	540.06
443.149	545.06
443.371	560.06
443.592	599.06
443.813	676.06
444.034	757.06
444.255	624.06
444.476	542.06
444.698	528.06
444.919	537.06
445.14	604.06
445.361	581.06
445.582	566.06
445.803	629.06
446.024	728.06
446.245	752.06
446.466	672.06
446.687	569.06
446.908	531.06
447.129	506.06
447.35	477.06
447.571	469.06
447.792	470.06
448.013	471.06
448.234	490.06
448.455	562.06
448.675	661.06
448.896	775.06
449.117	678.06
449.338	666.06
449.559	736.06
449.779	842.06
450	664.06
450.221	540.06
450.442	494.06
450.662	477.06
450.883	464.06
451.104	512.06
451.324	461.06
451.545	436.06
451.766	445.06
451.986	436.06
452.207	446.06
452.428	441.06
452.648	431.06
452.869	428.06
453.089	442.06
453.31	440.06
453.53	444.06
453.751	418.06
453.971	436.06
454.192	443.06
454.412	446.06
454.633	412.06
454.853	420.06
455.073	449.06
455.294	457.06
455.514	527.06
455.734	498.06
455.955	414.06
456.175	395.06
456.395	409.06
456.616	398.06
456.836	392.06
457.056	398.06
457.276	383.06
457.497	395.06
457.717	402.06
457.937	406.06
458.157	440.06
458.377	422.06
458.598	438.06
458.818	488.06
459.038	567.06
459.258	595.06
459.478	522.06
459.698	460.06
459.918	425.06
460.138	434.06
460.358	427.06
460.578	430.06
460.798	467.06
461.018	446.06
461.238	471.06
461.458	444.06
461.678	438.06
461.898	457.06
462.118	448.06
462.338	444.06
462.558	448.06
462.777	465.06
462.997	472.06
463.217	489.06
463.437	481.06
463.657	453.06
463.876	464.06
464.096	463.06
464.316	480.06
464.536	474.06
464.755	473.06
464.975	474.06
465.195	526.06
465.414	596.06
465.634	526.06
465.854	477.06
466.073	445.06
466.293	455.06
466.512	444.06
466.732	445.06
466.951	430.06
467.171	420.06
467.391	430.06
467.61	434.06
467.829	439.06
468.049	450.06
468.268	410.06
468.488	427.06
468.707	396.06
468.927	421.06
469.146	417.06
469.365	409.06
469.585	424.06
469.804	421.06
470.023	466.06
470.243	449.06
470.462	452.06
470.681	459.06
470.901	451.06
471.12	438.06
471.339	427.06
471.558	458.06
471.777	456.06
471.997	416.06
472.216	427.06
472.435	427.06
472.654	413.06
472.873	433.06
473.092	438.06
473.311	432.06
473.53	432.06
473.749	455.06
473.968	482.06
474.187	606.06
474.406	594.06
474.625	524.06
474.844	451.06
475.063	437.06
475.282	426.06
475.501	438.06
475.72	443.06
475.939	453.06
476.158	464.06
476.377	448.06
476.596	458.06
476.814	458.06
477.033	469.06
477.252	480.06
477.471	465.06
477.69	461.06
477.908	454.06
478.127	468.06
478.346	467.06
478.564	486.06
478.783	496.06
479.002	491.06
479.22	482.06
479.439	482.06
479.658	530.06
479.876	540.06
480.095	516.06
480.313	569.06
480.532	541.06
480.751	525.06
480.969	524.06
481.188	530.06
481.406	544.06
481.624	532.06
481.843	501.06
482.061	516.06
482.28	485.06
482.498	501.06
482.717	512.06
482.935	514.06
483.153	493.06
483.372	516.06
483.59	523.06
483.808	508.06
484.027	492.06
484.245	496.06
484.463	505.06
484.681	509.06
484.9	522.06
485.118	516.06
485.336	508.06
485.554	515.06
485.772	509.06
485.99	526.06
486.209	534.06
486.427	529.06
486.645	538.06
486.863	562.06
487.081	570.06
487.299	552.06
487.517	526.06
487.735	554.06
487.953	531.06
488.171	550.06
488.389	547.06
488.607	567.06
488.825	556.06
489.043	557.06
489.261	557.06
489.479	564.06
489.696	577.06
489.914	543.06
490.132	541.06
490.35	572.06
490.568	609.06
490.786	564.06
491.003	587.06
491.221	603.06
491.439	609.06
491.657	588.06
491.874	617.06
492.092	621.06
492.31	614.06
492.527	615.06
492.745	631.06
492.963	646.06
493.18	643.06
493.398	643.06
493.615	647.06
493.833	649.06
494.05	651.06
494.268	651.06
494.485	675.06
494.703	647.06
494.92	661.06
495.138	630.06
495.355	652.06
495.573	649.06
495.79	642.06
496.008	654.06
496.225	658.06
496.442	669.06
496.66	654.06
496.877	648.06
497.094	664.06
497.312	650.06
497.529	659.06
497.746	679.06
497.963	691.06
498.181	718.06
498.398	709.06
498.615	722.06
498.832	708.06
499.049	728.06
499.267	770.06
499.484	746.06
499.701	773.06
499.918	816.06
500.135	822.06
500.352	854.06
500.569	857.06
500.786	862.06
501.003	853.06
501.22	852.06
501.437	802.06
501.654	798.06
501.871	800.06
