Data from 1989.PennyLincolnUp.Lamp.En5.5.200Scan.071819.P2_HRD10591_17-24-34-974.txt Node
Date: Thu Jul 18 17:24:34 EDT 2019
User: cochatt
Spectrometer: HR+D1059
Trigger mode: 1
Integration Time (sec): 1.000000E-1
Scans to average: 1
Electric dark correction enabled: true
Nonlinearity correction enabled: false
Boxcar width: 0
XAxis mode: Wavelengths
Number of Pixels in Spectrum: 2048
>>>>>Begin Spectral Data<<<<<
223.165	-19.5
223.4	-19.5
223.635	-19.5
223.869	-15.5
224.104	-19.5
224.338	-4.5
224.573	-4.5
224.808	-14.5
225.042	-1.5
225.277	2.5
225.511	-8.5
225.746	0.5
225.98	-13.5
226.215	2.5
226.449	11.5
226.683	32.5
226.918	25.5
227.152	26.5
227.387	25.5
227.621	42.5
227.856	36.5
228.09	46.5
228.324	50.5
228.559	43.5
228.793	67.5
229.027	97.5
229.262	97.5
229.496	131.5
229.73	127.5
229.964	159.5
230.199	134.5
230.433	110.5
230.667	120.5
230.901	103.5
231.136	125.5
231.37	112.5
231.604	115.5
231.838	113.5
232.072	108.5
232.306	114.5
232.541	112.5
232.775	121.5
233.009	107.5
233.243	113.5
233.477	116.5
233.711	117.5
233.945	118.5
234.179	115.5
234.413	112.5
234.647	104.5
234.881	121.5
235.115	107.5
235.349	113.5
235.583	127.5
235.817	130.5
236.051	117.5
236.285	135.5
236.519	117.5
236.753	118.5
236.987	154.5
237.221	190.5
237.455	256.5
237.689	174.5
237.922	148.5
238.156	121.5
238.39	140.5
238.624	130.5
238.858	115.5
239.091	129.5
239.325	116.5
239.559	129.5
239.793	126.5
240.027	136.5
240.26	155.5
240.494	168.5
240.728	153.5
240.961	152.5
241.195	142.5
241.429	141.5
241.662	145.5
241.896	144.5
242.13	132.5
242.363	127.5
242.597	133.5
242.83	149.5
243.064	150.5
243.298	137.5
243.531	142.5
243.765	150.5
243.998	133.5
244.232	141.5
244.465	133.5
244.699	152.5
244.932	144.5
245.166	144.5
245.399	161.5
245.633	158.5
245.866	151.5
246.099	146.5
246.333	153.5
246.566	148.5
246.8	154.5
247.033	166.5
247.266	167.5
247.5	162.5
247.733	164.5
247.966	180.5
248.2	181.5
248.433	182.5
248.666	179.5
248.899	180.5
249.133	210.5
249.366	205.5
249.599	209.5
249.832	183.5
250.066	194.5
250.299	195.5
250.532	198.5
250.765	223.5
250.998	224.5
251.231	239.5
251.465	244.5
251.698	230.5
251.931	210.5
252.164	192.5
252.397	201.5
252.63	209.5
252.863	236.5
253.096	218.5
253.329	241.5
253.562	244.5
253.795	235.5
254.028	225.5
254.261	234.5
254.494	224.5
254.727	270.5
254.96	287.5
255.193	286.5
255.426	275.5
255.659	254.5
255.892	247.5
256.124	221.5
256.357	239.5
256.59	234.5
256.823	227.5
257.056	231.5
257.289	223.5
257.521	219.5
257.754	227.5
257.987	219.5
258.22	211.5
258.452	222.5
258.685	230.5
258.918	244.5
259.151	232.5
259.383	228.5
259.616	239.5
259.849	246.5
260.081	252.5
260.314	285.5
260.547	302.5
260.779	273.5
261.012	252.5
261.244	246.5
261.477	268.5
261.71	240.5
261.942	243.5
262.175	244.5
262.407	251.5
262.64	228.5
262.872	215.5
263.105	229.5
263.337	220.5
263.57	224.5
263.802	243.5
264.035	223.5
264.267	233.5
264.499	227.5
264.732	228.5
264.964	215.5
265.197	224.5
265.429	230.5
265.661	226.5
265.894	229.5
266.126	250.5
266.358	244.5
266.591	222.5
266.823	252.5
267.055	230.5
267.287	265.5
267.52	247.5
267.752	251.5
267.984	230.5
268.216	237.5
268.448	247.5
268.681	262.5
268.913	249.5
269.145	268.5
269.377	303.5
269.609	290.5
269.841	297.5
270.073	306.5
270.306	312.5
270.538	341.5
270.77	335.5
271.002	334.5
271.234	300.5
271.466	338.5
271.698	334.5
271.93	339.5
272.162	348.5
272.394	362.5
272.626	321.5
272.858	306.5
273.09	319.5
273.322	288.5
273.553	293.5
273.785	298.5
274.017	272.5
274.249	283.5
274.481	276.5
274.713	287.5
274.945	292.5
275.176	285.5
275.408	281.5
275.64	280.5
275.872	300.5
276.104	289.5
276.335	280.5
276.567	292.5
276.799	324.5
277.031	332.5
277.262	334.5
277.494	332.5
277.726	322.5
277.957	314.5
278.189	304.5
278.421	296.5
278.652	313.5
278.884	299.5
279.115	292.5
279.347	282.5
279.579	275.5
279.81	291.5
280.042	285.5
280.273	274.5
280.505	269.5
280.736	270.5
280.968	259.5
281.199	259.5
281.431	281.5
281.662	264.5
281.894	290.5
282.125	279.5
282.356	315.5
282.588	347.5
282.819	335.5
283.051	290.5
283.282	299.5
283.513	289.5
283.745	304.5
283.976	292.5
284.207	291.5
284.439	298.5
284.67	278.5
284.901	283.5
285.132	303.5
285.364	291.5
285.595	306.5
285.826	278.5
286.057	295.5
286.288	288.5
286.52	304.5
286.751	293.5
286.982	283.5
287.213	290.5
287.444	299.5
287.675	286.5
287.906	298.5
288.138	324.5
288.369	328.5
288.6	307.5
288.831	302.5
289.062	317.5
289.293	315.5
289.524	294.5
289.755	304.5
289.986	295.5
290.217	295.5
290.448	317.5
290.679	310.5
290.91	304.5
291.141	288.5
291.371	291.5
291.602	298.5
291.833	311.5
292.064	314.5
292.295	300.5
292.526	305.5
292.757	320.5
292.987	307.5
293.218	318.5
293.449	308.5
293.68	298.5
293.91	319.5
294.141	295.5
294.372	295.5
294.603	310.5
294.833	307.5
295.064	296.5
295.295	296.5
295.525	298.5
295.756	332.5
295.987	320.5
296.217	358.5
296.448	354.5
296.679	328.5
296.909	312.5
297.14	323.5
297.37	303.5
297.601	303.5
297.831	309.5
298.062	320.5
298.292	319.5
298.523	304.5
298.753	321.5
298.984	312.5
299.214	308.5
299.445	315.5
299.675	326.5
299.905	341.5
300.136	327.5
300.366	303.5
300.597	306.5
300.827	323.5
301.057	328.5
301.288	340.5
301.518	342.5
301.748	330.5
301.979	337.5
302.209	347.5
302.439	359.5
302.669	342.5
302.9	321.5
303.13	333.5
303.36	329.5
303.59	340.5
303.82	363.5
304.051	349.5
304.281	342.5
304.511	352.5
304.741	360.5
304.971	333.5
305.201	338.5
305.431	347.5
305.661	323.5
305.891	327.5
306.121	354.5
306.352	359.5
306.582	366.5
306.812	342.5
307.042	333.5
307.272	340.5
307.502	348.5
307.731	357.5
307.961	367.5
308.191	353.5
308.421	344.5
308.651	338.5
308.881	355.5
309.111	350.5
309.341	362.5
309.571	375.5
309.8	370.5
310.03	382.5
310.26	416.5
310.49	403.5
310.72	425.5
310.949	418.5
311.179	424.5
311.409	391.5
311.639	386.5
311.868	401.5
312.098	412.5
312.328	414.5
312.557	422.5
312.787	436.5
313.017	451.5
313.246	413.5
313.476	394.5
313.706	388.5
313.935	385.5
314.165	418.5
314.394	424.5
314.624	446.5
314.853	414.5
315.083	400.5
315.312	382.5
315.542	384.5
315.771	388.5
316.001	383.5
316.23	386.5
316.46	394.5
316.689	396.5
316.919	400.5
317.148	410.5
317.377	425.5
317.607	406.5
317.836	414.5
318.065	384.5
318.295	369.5
318.524	380.5
318.753	396.5
318.983	394.5
319.212	400.5
319.441	416.5
319.67	404.5
319.9	397.5
320.129	411.5
320.358	393.5
320.587	404.5
320.816	410.5
321.046	412.5
321.275	407.5
321.504	416.5
321.733	393.5
321.962	428.5
322.191	462.5
322.42	450.5
322.649	470.5
322.878	490.5
323.108	482.5
323.337	507.5
323.566	544.5
323.795	560.5
324.024	651.5
324.253	778.5
324.482	1152.5
324.71	1716.5
324.939	2514.5
325.168	2129.5
325.397	1113.5
325.626	741.5
325.855	633.5
326.084	560.5
326.313	539.5
326.542	545.5
326.77	618.5
326.999	692.5
327.228	1010.5
327.457	1495.5
327.686	1888.5
327.914	1238.5
328.143	804.5
328.372	671.5
328.6	634.5
328.829	601.5
329.058	598.5
329.287	642.5
329.515	588.5
329.744	542.5
329.972	526.5
330.201	527.5
330.43	551.5
330.658	606.5
330.887	648.5
331.115	636.5
331.344	531.5
331.572	528.5
331.801	498.5
332.03	525.5
332.258	508.5
332.486	466.5
332.715	460.5
332.943	466.5
333.172	449.5
333.4	470.5
333.629	474.5
333.857	463.5
334.085	489.5
334.314	474.5
334.542	476.5
334.771	497.5
334.999	489.5
335.227	465.5
335.455	464.5
335.684	456.5
335.912	451.5
336.14	438.5
336.369	471.5
336.597	461.5
336.825	465.5
337.053	461.5
337.281	449.5
337.51	432.5
337.738	445.5
337.966	451.5
338.194	457.5
338.422	449.5
338.65	462.5
338.878	440.5
339.106	451.5
339.334	449.5
339.562	433.5
339.79	457.5
340.018	439.5
340.246	447.5
340.474	454.5
340.702	446.5
340.93	440.5
341.158	421.5
341.386	448.5
341.614	458.5
341.842	438.5
342.07	436.5
342.298	422.5
342.526	446.5
342.754	425.5
342.981	442.5
343.209	442.5
343.437	426.5
343.665	424.5
343.893	432.5
344.12	433.5
344.348	417.5
344.576	444.5
344.804	458.5
345.031	445.5
345.259	461.5
345.487	452.5
345.714	454.5
345.942	416.5
346.17	434.5
346.397	430.5
346.625	409.5
346.853	431.5
347.08	436.5
347.308	422.5
347.535	432.5
347.763	450.5
347.99	444.5
348.218	437.5
348.445	437.5
348.673	458.5
348.9	433.5
349.128	423.5
349.355	422.5
349.583	412.5
349.81	415.5
350.037	408.5
350.265	396.5
350.492	402.5
350.72	414.5
350.947	413.5
351.174	422.5
351.402	416.5
351.629	430.5
351.856	432.5
352.083	428.5
352.311	448.5
352.538	444.5
352.765	442.5
352.992	438.5
353.22	399.5
353.447	416.5
353.674	414.5
353.901	419.5
354.128	403.5
354.355	397.5
354.583	384.5
354.81	395.5
355.037	393.5
355.264	377.5
355.491	381.5
355.718	380.5
355.945	408.5
356.172	398.5
356.399	390.5
356.626	378.5
356.853	390.5
357.08	377.5
357.307	390.5
357.534	378.5
357.761	380.5
357.988	405.5
358.215	393.5
358.441	361.5
358.668	382.5
358.895	383.5
359.122	420.5
359.349	400.5
359.576	426.5
359.802	437.5
360.029	471.5
360.256	465.5
360.483	436.5
360.709	413.5
360.936	411.5
361.163	407.5
361.39	434.5
361.616	420.5
361.843	427.5
362.07	427.5
362.296	418.5
362.523	407.5
362.749	418.5
362.976	406.5
363.203	405.5
363.429	398.5
363.656	378.5
363.882	400.5
364.109	393.5
364.335	385.5
364.562	384.5
364.788	393.5
365.015	389.5
365.241	399.5
365.468	401.5
365.694	422.5
365.92	403.5
366.147	407.5
366.373	395.5
366.599	383.5
366.826	384.5
367.052	407.5
367.278	397.5
367.505	392.5
367.731	393.5
367.957	395.5
368.184	394.5
368.41	390.5
368.636	384.5
368.862	408.5
369.089	397.5
369.315	392.5
369.541	392.5
369.767	392.5
369.993	385.5
370.219	408.5
370.445	383.5
370.672	396.5
370.898	398.5
371.124	384.5
371.35	370.5
371.576	365.5
371.802	373.5
372.028	382.5
372.254	379.5
372.48	378.5
372.706	367.5
372.932	394.5
373.158	391.5
373.384	395.5
373.61	402.5
373.835	403.5
374.061	389.5
374.287	407.5
374.513	387.5
374.739	391.5
374.965	383.5
375.191	380.5
375.416	388.5
375.642	385.5
375.868	383.5
376.094	386.5
376.319	379.5
376.545	379.5
376.771	388.5
376.997	367.5
377.222	382.5
377.448	368.5
377.674	375.5
377.899	344.5
378.125	387.5
378.35	390.5
378.576	374.5
378.802	379.5
379.027	394.5
379.253	370.5
379.478	385.5
379.704	366.5
379.929	382.5
380.155	380.5
380.38	373.5
380.606	357.5
380.831	388.5
381.057	394.5
381.282	394.5
381.507	363.5
381.733	378.5
381.958	366.5
382.184	379.5
382.409	373.5
382.634	404.5
382.86	378.5
383.085	410.5
383.31	404.5
383.535	384.5
383.761	385.5
383.986	377.5
384.211	408.5
384.436	393.5
384.662	400.5
384.887	374.5
385.112	378.5
385.337	388.5
385.562	409.5
385.787	404.5
386.013	410.5
386.238	403.5
386.463	393.5
386.688	404.5
386.913	376.5
387.138	383.5
387.363	400.5
387.588	402.5
387.813	405.5
388.038	402.5
388.263	392.5
388.488	388.5
388.713	407.5
388.938	410.5
389.163	395.5
389.387	412.5
389.612	409.5
389.837	403.5
390.062	396.5
390.287	398.5
390.512	403.5
390.736	388.5
390.961	419.5
391.186	391.5
391.411	418.5
391.636	399.5
391.86	404.5
392.085	395.5
392.31	398.5
392.534	406.5
392.759	416.5
392.984	403.5
393.208	401.5
393.433	405.5
393.658	422.5
393.882	394.5
394.107	402.5
394.331	404.5
394.556	401.5
394.78	401.5
395.005	417.5
395.229	411.5
395.454	412.5
395.678	402.5
395.903	416.5
396.127	448.5
396.352	445.5
396.576	436.5
396.801	411.5
397.025	412.5
397.249	442.5
397.474	438.5
397.698	434.5
397.922	433.5
398.147	451.5
398.371	449.5
398.595	438.5
398.82	432.5
399.044	445.5
399.268	475.5
399.492	489.5
399.717	499.5
399.941	525.5
400.165	559.5
400.389	566.5
400.613	517.5
400.837	489.5
401.062	456.5
401.286	483.5
401.51	480.5
401.734	455.5
401.958	439.5
402.182	470.5
402.406	468.5
402.63	483.5
402.854	462.5
403.078	478.5
403.302	478.5
403.526	475.5
403.75	460.5
403.974	467.5
404.198	477.5
404.422	494.5
404.645	470.5
404.869	486.5
405.093	491.5
405.317	494.5
405.541	550.5
405.765	502.5
405.988	483.5
406.212	474.5
406.436	526.5
406.66	543.5
406.883	537.5
407.107	536.5
407.331	547.5
407.555	636.5
407.778	624.5
408.002	565.5
408.226	563.5
408.449	523.5
408.673	524.5
408.896	566.5
409.12	584.5
409.344	564.5
409.567	491.5
409.791	475.5
410.014	480.5
410.238	458.5
410.461	457.5
410.685	486.5
410.908	465.5
411.132	527.5
411.355	536.5
411.578	549.5
411.802	467.5
412.025	472.5
412.249	472.5
412.472	480.5
412.695	498.5
412.919	466.5
413.142	462.5
413.365	446.5
413.589	444.5
413.812	417.5
414.035	435.5
414.258	423.5
414.482	421.5
414.705	435.5
414.928	458.5
415.151	432.5
415.374	451.5
415.597	425.5
415.821	439.5
416.044	447.5
416.267	436.5
416.49	452.5
416.713	429.5
416.936	458.5
417.159	440.5
417.382	453.5
417.605	434.5
417.828	436.5
418.051	450.5
418.274	457.5
418.497	449.5
418.72	468.5
418.943	420.5
419.166	444.5
419.389	457.5
419.611	454.5
419.834	463.5
420.057	446.5
420.28	473.5
420.503	443.5
420.726	472.5
420.948	459.5
421.171	523.5
421.394	538.5
421.617	495.5
421.839	466.5
422.062	467.5
422.285	490.5
422.507	552.5
422.73	590.5
422.953	599.5
423.175	524.5
423.398	490.5
423.621	471.5
423.843	512.5
424.066	515.5
424.288	495.5
424.511	514.5
424.733	580.5
424.956	652.5
425.178	640.5
425.401	617.5
425.623	652.5
425.846	561.5
426.068	512.5
426.291	502.5
426.513	516.5
426.735	531.5
426.958	570.5
427.18	644.5
427.402	751.5
427.625	847.5
427.847	733.5
428.069	602.5
428.292	562.5
428.514	526.5
428.736	497.5
428.958	496.5
429.181	460.5
429.403	483.5
429.625	473.5
429.847	515.5
430.069	562.5
430.292	587.5
430.514	482.5
430.736	463.5
430.958	458.5
431.18	451.5
431.402	460.5
431.624	435.5
431.846	424.5
432.068	428.5
432.29	444.5
432.512	427.5
432.734	457.5
432.956	449.5
433.178	463.5
433.4	466.5
433.622	456.5
433.844	448.5
434.066	434.5
434.287	420.5
434.509	450.5
434.731	455.5
434.953	451.5
435.175	470.5
435.397	488.5
435.618	525.5
435.84	547.5
436.062	647.5
436.284	674.5
436.505	594.5
436.727	539.5
436.949	495.5
437.17	470.5
437.392	464.5
437.614	484.5
437.835	535.5
438.057	617.5
438.278	731.5
438.5	712.5
438.721	799.5
438.943	756.5
439.165	595.5
439.386	549.5
439.608	536.5
439.829	545.5
440.05	565.5
440.272	605.5
440.493	576.5
440.715	531.5
440.936	514.5
441.158	477.5
441.379	485.5
441.6	491.5
441.822	511.5
442.043	531.5
442.264	615.5
442.486	692.5
442.707	569.5
442.928	532.5
443.149	542.5
443.371	544.5
443.592	633.5
443.813	688.5
444.034	776.5
444.255	631.5
444.476	533.5
444.698	527.5
444.919	484.5
445.14	600.5
445.361	598.5
445.582	571.5
445.803	610.5
446.024	733.5
446.245	713.5
446.466	649.5
446.687	551.5
446.908	512.5
447.129	481.5
447.35	475.5
447.571	467.5
447.792	467.5
448.013	488.5
448.234	519.5
448.455	534.5
448.675	660.5
448.896	769.5
449.117	686.5
449.338	626.5
449.559	709.5
449.779	808.5
450	655.5
450.221	552.5
450.442	475.5
450.662	466.5
450.883	495.5
451.104	500.5
451.324	455.5
451.545	454.5
451.766	438.5
451.986	412.5
452.207	431.5
452.428	434.5
452.648	408.5
452.869	435.5
453.089	434.5
453.31	432.5
453.53	431.5
453.751	418.5
453.971	426.5
454.192	454.5
454.412	434.5
454.633	420.5
454.853	405.5
455.073	427.5
455.294	451.5
455.514	530.5
455.734	500.5
455.955	424.5
456.175	402.5
456.395	374.5
456.616	395.5
456.836	398.5
457.056	390.5
457.276	377.5
457.497	374.5
457.717	396.5
457.937	381.5
458.157	435.5
458.377	419.5
458.598	456.5
458.818	497.5
459.038	595.5
459.258	586.5
459.478	506.5
459.698	440.5
459.918	438.5
460.138	426.5
460.358	433.5
460.578	432.5
460.798	451.5
461.018	428.5
461.238	431.5
461.458	433.5
461.678	437.5
461.898	430.5
462.118	421.5
462.338	436.5
462.558	442.5
462.777	432.5
462.997	457.5
463.217	466.5
463.437	459.5
463.657	474.5
463.876	445.5
464.096	485.5
464.316	459.5
464.536	461.5
464.755	452.5
464.975	484.5
465.195	525.5
465.414	617.5
465.634	530.5
465.854	477.5
466.073	442.5
466.293	423.5
466.512	434.5
466.732	418.5
466.951	426.5
467.171	412.5
467.391	437.5
467.61	412.5
467.829	443.5
468.049	422.5
468.268	427.5
468.488	421.5
468.707	389.5
468.927	411.5
469.146	423.5
469.365	404.5
469.585	400.5
469.804	409.5
470.023	420.5
470.243	427.5
470.462	443.5
470.681	444.5
470.901	429.5
471.12	422.5
471.339	426.5
471.558	428.5
471.777	420.5
471.997	418.5
472.216	424.5
472.435	417.5
472.654	410.5
472.873	417.5
473.092	410.5
473.311	410.5
473.53	437.5
473.749	428.5
473.968	475.5
474.187	587.5
474.406	608.5
474.625	511.5
474.844	446.5
475.063	425.5
475.282	423.5
475.501	424.5
475.72	448.5
475.939	439.5
476.158	447.5
476.377	460.5
476.596	450.5
476.814	453.5
477.033	464.5
477.252	449.5
477.471	470.5
477.69	489.5
477.908	462.5
478.127	468.5
478.346	461.5
478.564	459.5
478.783	461.5
479.002	504.5
479.22	494.5
479.439	495.5
479.658	517.5
479.876	522.5
480.095	535.5
480.313	565.5
480.532	537.5
480.751	508.5
480.969	531.5
481.188	524.5
481.406	559.5
481.624	520.5
481.843	508.5
482.061	502.5
482.28	507.5
482.498	513.5
482.717	482.5
482.935	510.5
483.153	490.5
483.372	482.5
483.59	510.5
483.808	500.5
484.027	474.5
484.245	484.5
484.463	514.5
484.681	493.5
484.9	504.5
485.118	483.5
485.336	518.5
485.554	508.5
485.772	515.5
485.99	505.5
486.209	535.5
486.427	529.5
486.645	545.5
486.863	546.5
487.081	551.5
487.299	556.5
487.517	535.5
487.735	524.5
487.953	561.5
488.171	537.5
488.389	544.5
488.607	541.5
488.825	565.5
489.043	538.5
489.261	562.5
489.479	537.5
489.696	560.5
489.914	561.5
490.132	570.5
490.35	547.5
490.568	570.5
490.786	581.5
491.003	602.5
491.221	586.5
491.439	606.5
491.657	627.5
491.874	607.5
492.092	595.5
492.31	613.5
492.527	619.5
492.745	639.5
492.963	631.5
493.18	623.5
493.398	635.5
493.615	636.5
493.833	657.5
494.05	633.5
494.268	617.5
494.485	640.5
494.703	608.5
494.92	634.5
495.138	608.5
495.355	651.5
495.573	676.5
495.79	642.5
496.008	651.5
496.225	652.5
496.442	649.5
496.66	661.5
496.877	655.5
497.094	634.5
497.312	659.5
497.529	678.5
497.746	663.5
497.963	676.5
498.181	712.5
498.398	702.5
498.615	672.5
498.832	735.5
499.049	692.5
499.267	717.5
499.484	739.5
499.701	758.5
499.918	745.5
500.135	823.5
500.352	839.5
500.569	844.5
500.786	833.5
501.003	855.5
501.22	810.5
501.437	806.5
501.654	799.5
501.871	820.5
502.088	784.5
502.305	752.5
502.522	720.5
502.739	705.5
502.956	690.5
503.172	663.5
503.389	704.5
503.606	683.5
503.823	684.5
504.04	656.5
504.256	658.5
504.473	646.5
504.69	643.5
504.907	643.5
505.123	621.5
505.34	622.5
505.557	660.5
505.773	638.5
505.99	613.5
506.207	620.5
506.423	629.5
506.64	624.5
506.856	620.5
507.073	625.5
507.289	615.5
507.506	624.5
507.722	617.5
507.939	642.5
508.155	653.5
508.372	607.5
508.588	602.5
508.805	594.5
509.021	607.5
509.238	620.5
509.454	616.5
509.67	609.5
509.887	616.5
510.103	600.5
510.319	644.5
510.536	705.5
510.752	1236.5
510.968	1003.5
511.184	631.5
511.401	590.5
511.617	562.5
511.833	560.5
512.049	563.5
512.265	549.5
512.481	558.5
512.698	587.5
512.914	587.5
513.13	544.5
513.346	564.5
513.562	586.5
513.778	564.5
513.994	573.5
514.21	603.5
514.426	608.5
514.642	664.5
514.858	699.5
515.074	741.5
515.29	903.5
515.506	1409.5
515.721	1112.5
515.937	725.5
516.153	655.5
516.369	618.5
516.585	592.5
516.801	583.5
517.016	600.5
517.232	594.5
517.448	593.5
517.664	575.5
517.879	562.5
518.095	579.5
518.311	582.5
518.527	588.5
518.742	540.5
518.958	561.5
519.173	593.5
519.389	582.5
519.605	564.5
519.82	555.5
