Data from 1989.PennyLincolnUp.Lamp.En5.5.200Scan.071819.P2_HRD10591_17-23-17-973.txt Node
Date: Thu Jul 18 17:23:17 EDT 2019
User: cochatt
Spectrometer: HR+D1059
Trigger mode: 1
Integration Time (sec): 1.000000E-1
Scans to average: 1
Electric dark correction enabled: true
Nonlinearity correction enabled: false
Boxcar width: 0
XAxis mode: Wavelengths
Number of Pixels in Spectrum: 2048
>>>>>Begin Spectral Data<<<<<
223.165	-13.31
223.4	-13.31
223.635	-13.31
223.869	-29.31
224.104	-22.31
224.338	-16.31
224.573	-21.31
224.808	-7.31
225.042	-23.31
225.277	-10.31
225.511	1.69
225.746	-0.31
225.98	7.69
226.215	1.69
226.449	26.69
226.683	38.69
226.918	34.69
227.152	32.69
227.387	38.69
227.621	27.69
227.856	45.69
228.09	56.69
228.324	45.69
228.559	58.69
228.793	68.69
229.027	81.69
229.262	97.69
229.496	104.69
229.73	120.69
229.964	129.69
230.199	115.69
230.433	98.69
230.667	98.69
230.901	107.69
231.136	100.69
231.37	100.69
231.604	101.69
231.838	103.69
232.072	124.69
232.306	118.69
232.541	100.69
232.775	99.69
233.009	104.69
233.243	96.69
233.477	102.69
233.711	106.69
233.945	117.69
234.179	111.69
234.413	104.69
234.647	113.69
234.881	103.69
235.115	111.69
235.349	116.69
235.583	103.69
235.817	115.69
236.051	117.69
236.285	111.69
236.519	120.69
236.753	122.69
236.987	119.69
237.221	149.69
237.455	197.69
237.689	161.69
237.922	133.69
238.156	124.69
238.39	102.69
238.624	108.69
238.858	121.69
239.091	122.69
239.325	114.69
239.559	125.69
239.793	113.69
240.027	119.69
240.26	123.69
240.494	140.69
240.728	133.69
240.961	135.69
241.195	126.69
241.429	112.69
241.662	143.69
241.896	128.69
242.13	130.69
242.363	123.69
242.597	122.69
242.83	144.69
243.064	129.69
243.298	114.69
243.531	104.69
243.765	129.69
243.998	132.69
244.232	134.69
244.465	139.69
244.699	135.69
244.932	148.69
245.166	127.69
245.399	126.69
245.633	128.69
245.866	118.69
246.099	143.69
246.333	139.69
246.566	143.69
246.8	131.69
247.033	142.69
247.266	139.69
247.5	153.69
247.733	149.69
247.966	146.69
248.2	150.69
248.433	171.69
248.666	172.69
248.899	164.69
249.133	176.69
249.366	184.69
249.599	186.69
249.832	182.69
250.066	169.69
250.299	165.69
250.532	168.69
250.765	187.69
250.998	196.69
251.231	212.69
251.465	213.69
251.698	186.69
251.931	188.69
252.164	177.69
252.397	193.69
252.63	194.69
252.863	201.69
253.096	202.69
253.329	215.69
253.562	213.69
253.795	216.69
254.028	203.69
254.261	200.69
254.494	201.69
254.727	231.69
254.96	234.69
255.193	249.69
255.426	224.69
255.659	205.69
255.892	203.69
256.124	208.69
256.357	183.69
256.59	194.69
256.823	189.69
257.056	187.69
257.289	190.69
257.521	187.69
257.754	185.69
257.987	221.69
258.22	198.69
258.452	193.69
258.685	211.69
258.918	186.69
259.151	205.69
259.383	213.69
259.616	189.69
259.849	209.69
260.081	198.69
260.314	229.69
260.547	215.69
260.779	241.69
261.012	216.69
261.244	212.69
261.477	204.69
261.71	210.69
261.942	207.69
262.175	227.69
262.407	205.69
262.64	209.69
262.872	201.69
263.105	198.69
263.337	198.69
263.57	214.69
263.802	209.69
264.035	215.69
264.267	203.69
264.499	187.69
264.732	194.69
264.964	202.69
265.197	205.69
265.429	207.69
265.661	197.69
265.894	191.69
266.126	217.69
266.358	192.69
266.591	185.69
266.823	188.69
267.055	207.69
267.287	217.69
267.52	206.69
267.752	204.69
267.984	210.69
268.216	211.69
268.448	215.69
268.681	212.69
268.913	207.69
269.145	253.69
269.377	234.69
269.609	245.69
269.841	225.69
270.073	252.69
270.306	261.69
270.538	279.69
270.77	253.69
271.002	261.69
271.234	267.69
271.466	287.69
271.698	275.69
271.93	273.69
272.162	295.69
272.394	306.69
272.626	275.69
272.858	246.69
273.09	242.69
273.322	249.69
273.553	238.69
273.785	243.69
274.017	245.69
274.249	234.69
274.481	235.69
274.713	246.69
274.945	230.69
275.176	246.69
275.408	229.69
275.64	222.69
275.872	226.69
276.104	239.69
276.335	243.69
276.567	242.69
276.799	258.69
277.031	260.69
277.262	257.69
277.494	273.69
277.726	274.69
277.957	260.69
278.189	261.69
278.421	254.69
278.652	254.69
278.884	248.69
279.115	257.69
279.347	259.69
279.579	235.69
279.81	249.69
280.042	243.69
280.273	246.69
280.505	232.69
280.736	253.69
280.968	260.69
281.199	240.69
281.431	241.69
281.662	238.69
281.894	239.69
282.125	248.69
282.356	264.69
282.588	273.69
282.819	267.69
283.051	249.69
283.282	248.69
283.513	271.69
283.745	261.69
283.976	263.69
284.207	260.69
284.439	262.69
284.67	245.69
284.901	268.69
285.132	265.69
285.364	264.69
285.595	283.69
285.826	262.69
286.057	252.69
286.288	261.69
286.52	241.69
286.751	269.69
286.982	265.69
287.213	250.69
287.444	263.69
287.675	277.69
287.906	278.69
288.138	268.69
288.369	270.69
288.6	282.69
288.831	254.69
289.062	279.69
289.293	255.69
289.524	265.69
289.755	280.69
289.986	266.69
290.217	264.69
290.448	261.69
290.679	260.69
290.91	266.69
291.141	264.69
291.371	256.69
291.602	277.69
291.833	255.69
292.064	279.69
292.295	271.69
292.526	258.69
292.757	285.69
292.987	254.69
293.218	266.69
293.449	279.69
293.68	267.69
293.91	271.69
294.141	262.69
294.372	255.69
294.603	279.69
294.833	265.69
295.064	270.69
295.295	267.69
295.525	274.69
295.756	257.69
295.987	281.69
296.217	290.69
296.448	282.69
296.679	263.69
296.909	285.69
297.14	290.69
297.37	283.69
297.601	274.69
297.831	279.69
298.062	278.69
298.292	294.69
298.523	274.69
298.753	288.69
298.984	273.69
299.214	271.69
299.445	301.69
299.675	276.69
299.905	278.69
300.136	285.69
300.366	288.69
300.597	281.69
300.827	298.69
301.057	291.69
301.288	301.69
301.518	291.69
301.748	300.69
301.979	290.69
302.209	298.69
302.439	276.69
302.669	297.69
302.9	302.69
303.13	294.69
303.36	306.69
303.59	306.69
303.82	296.69
304.051	309.69
304.281	289.69
304.511	287.69
304.741	303.69
304.971	292.69
305.201	286.69
305.431	275.69
305.661	299.69
305.891	301.69
306.121	304.69
306.352	311.69
306.582	297.69
306.812	307.69
307.042	303.69
307.272	301.69
307.502	317.69
307.731	290.69
307.961	294.69
308.191	303.69
308.421	297.69
308.651	299.69
308.881	291.69
309.111	299.69
309.341	310.69
309.571	319.69
309.8	321.69
310.03	321.69
310.26	309.69
310.49	314.69
310.72	318.69
310.949	336.69
311.179	335.69
311.409	324.69
311.639	338.69
311.868	326.69
312.098	345.69
312.328	336.69
312.557	340.69
312.787	334.69
313.017	333.69
313.246	336.69
313.476	340.69
313.706	336.69
313.935	344.69
314.165	322.69
314.394	350.69
314.624	335.69
314.853	345.69
315.083	318.69
315.312	344.69
315.542	341.69
315.771	331.69
316.001	332.69
316.23	319.69
316.46	309.69
316.689	326.69
316.919	329.69
317.148	325.69
317.377	340.69
317.607	347.69
317.836	346.69
318.065	342.69
318.295	352.69
318.524	333.69
318.753	342.69
318.983	336.69
319.212	340.69
319.441	349.69
319.67	351.69
319.9	332.69
320.129	335.69
320.358	354.69
320.587	344.69
320.816	347.69
321.046	350.69
321.275	356.69
321.504	337.69
321.733	338.69
321.962	334.69
322.191	377.69
322.42	365.69
322.649	376.69
322.878	383.69
323.108	382.69
323.337	406.69
323.566	424.69
323.795	419.69
324.024	467.69
324.253	546.69
324.482	705.69
324.71	1083.69
324.939	1537.69
325.168	1368.69
325.397	711.69
325.626	511.69
325.855	437.69
326.084	412.69
326.313	396.69
326.542	420.69
326.77	430.69
326.999	514.69
327.228	678.69
327.457	956.69
327.686	1183.69
327.914	801.69
328.143	518.69
328.372	453.69
328.6	445.69
328.829	441.69
329.058	448.69
329.287	442.69
329.515	417.69
329.744	404.69
329.972	401.69
330.201	379.69
330.43	415.69
330.658	453.69
330.887	450.69
331.115	474.69
331.344	434.69
331.572	395.69
331.801	403.69
332.03	395.69
332.258	386.69
332.486	379.69
332.715	382.69
332.943	387.69
333.172	411.69
333.4	402.69
333.629	383.69
333.857	382.69
334.085	398.69
334.314	396.69
334.542	408.69
334.771	397.69
334.999	393.69
335.227	381.69
335.455	386.69
335.684	361.69
335.912	377.69
336.14	389.69
336.369	370.69
336.597	387.69
336.825	380.69
337.053	394.69
337.281	378.69
337.51	376.69
337.738	381.69
337.966	372.69
338.194	379.69
338.422	389.69
338.65	377.69
338.878	386.69
339.106	363.69
339.334	375.69
339.562	383.69
339.79	351.69
340.018	398.69
340.246	388.69
340.474	377.69
340.702	381.69
340.93	373.69
341.158	391.69
341.386	374.69
341.614	381.69
341.842	360.69
342.07	382.69
342.298	371.69
342.526	368.69
342.754	373.69
342.981	353.69
343.209	353.69
343.437	366.69
343.665	373.69
343.893	367.69
344.12	381.69
344.348	356.69
344.576	366.69
344.804	381.69
345.031	380.69
345.259	389.69
345.487	382.69
345.714	375.69
345.942	384.69
346.17	364.69
346.397	365.69
346.625	358.69
346.853	370.69
347.08	351.69
347.308	369.69
347.535	357.69
347.763	359.69
347.99	368.69
348.218	371.69
348.445	376.69
348.673	374.69
348.9	367.69
349.128	340.69
349.355	351.69
349.583	346.69
349.81	350.69
350.037	351.69
350.265	363.69
350.492	348.69
350.72	342.69
350.947	382.69
351.174	372.69
351.402	348.69
351.629	361.69
351.856	369.69
352.083	365.69
352.311	357.69
352.538	375.69
352.765	360.69
352.992	363.69
353.22	355.69
353.447	349.69
353.674	362.69
353.901	359.69
354.128	355.69
354.355	354.69
354.583	355.69
354.81	325.69
355.037	323.69
355.264	334.69
355.491	347.69
355.718	331.69
355.945	360.69
356.172	340.69
356.399	352.69
356.626	325.69
356.853	341.69
357.08	352.69
357.307	323.69
357.534	330.69
357.761	340.69
357.988	328.69
358.215	329.69
358.441	341.69
358.668	330.69
358.895	337.69
359.122	341.69
359.349	344.69
359.576	350.69
359.802	362.69
360.029	392.69
360.256	389.69
360.483	386.69
360.709	363.69
360.936	354.69
361.163	346.69
361.39	340.69
361.616	331.69
361.843	337.69
362.07	362.69
362.296	366.69
362.523	342.69
362.749	355.69
362.976	357.69
363.203	352.69
363.429	344.69
363.656	326.69
363.882	334.69
364.109	345.69
364.335	358.69
364.562	336.69
364.788	347.69
365.015	360.69
365.241	341.69
365.468	354.69
365.694	334.69
365.92	355.69
366.147	350.69
366.373	355.69
366.599	354.69
366.826	343.69
367.052	346.69
367.278	349.69
367.505	353.69
367.731	342.69
367.957	357.69
368.184	331.69
368.41	355.69
368.636	337.69
368.862	343.69
369.089	352.69
369.315	342.69
369.541	345.69
369.767	356.69
369.993	353.69
370.219	349.69
370.445	334.69
370.672	329.69
370.898	335.69
371.124	365.69
371.35	342.69
371.576	340.69
371.802	350.69
372.028	337.69
372.254	338.69
372.48	336.69
372.706	361.69
372.932	350.69
373.158	348.69
373.384	362.69
373.61	352.69
373.835	354.69
374.061	339.69
374.287	351.69
374.513	364.69
374.739	348.69
374.965	343.69
375.191	330.69
375.416	349.69
375.642	341.69
375.868	350.69
376.094	328.69
376.319	346.69
376.545	356.69
376.771	344.69
376.997	338.69
377.222	334.69
377.448	344.69
377.674	338.69
377.899	346.69
378.125	343.69
378.35	334.69
378.576	361.69
378.802	317.69
379.027	334.69
379.253	361.69
379.478	350.69
379.704	338.69
379.929	356.69
380.155	331.69
380.38	367.69
380.606	339.69
380.831	355.69
381.057	372.69
381.282	343.69
381.507	358.69
381.733	357.69
381.958	351.69
382.184	336.69
382.409	358.69
382.634	352.69
382.86	360.69
383.085	356.69
383.31	345.69
383.535	367.69
383.761	349.69
383.986	355.69
384.211	370.69
384.436	366.69
384.662	366.69
384.887	359.69
385.112	367.69
385.337	370.69
385.562	340.69
385.787	370.69
386.013	369.69
386.238	376.69
386.463	362.69
386.688	373.69
386.913	369.69
387.138	389.69
387.363	369.69
387.588	372.69
387.813	371.69
388.038	377.69
388.263	357.69
388.488	381.69
388.713	369.69
388.938	355.69
389.163	372.69
389.387	383.69
389.612	360.69
389.837	379.69
390.062	376.69
390.287	362.69
390.512	371.69
390.736	374.69
390.961	372.69
391.186	360.69
391.411	383.69
391.636	375.69
391.86	373.69
392.085	391.69
392.31	344.69
392.534	373.69
392.759	361.69
392.984	378.69
393.208	369.69
393.433	376.69
393.658	392.69
393.882	372.69
394.107	387.69
394.331	369.69
394.556	358.69
394.78	369.69
395.005	367.69
395.229	382.69
395.454	380.69
395.678	375.69
395.903	376.69
396.127	389.69
396.352	411.69
396.576	376.69
396.801	367.69
397.025	381.69
397.249	391.69
397.474	366.69
397.698	394.69
397.922	402.69
398.147	410.69
398.371	421.69
398.595	392.69
398.82	405.69
399.044	409.69
399.268	419.69
399.492	443.69
399.717	466.69
399.941	497.69
400.165	488.69
400.389	498.69
400.613	476.69
400.837	431.69
401.062	445.69
401.286	413.69
401.51	382.69
401.734	407.69
401.958	425.69
402.182	411.69
402.406	438.69
402.63	434.69
402.854	418.69
403.078	392.69
403.302	418.69
403.526	430.69
403.75	438.69
403.974	411.69
404.198	403.69
404.422	399.69
404.645	417.69
404.869	427.69
405.093	412.69
405.317	449.69
405.541	453.69
405.765	449.69
405.988	444.69
406.212	434.69
406.436	451.69
406.66	469.69
406.883	449.69
407.107	453.69
407.331	487.69
407.555	564.69
407.778	554.69
408.002	509.69
408.226	483.69
408.449	471.69
408.673	461.69
408.896	468.69
409.12	495.69
409.344	497.69
409.567	477.69
409.791	459.69
410.014	406.69
410.238	423.69
410.461	411.69
410.685	433.69
410.908	419.69
411.132	474.69
411.355	485.69
411.578	493.69
411.802	448.69
412.025	408.69
412.249	421.69
412.472	432.69
412.695	411.69
412.919	416.69
413.142	413.69
413.365	418.69
413.589	431.69
413.812	392.69
414.035	408.69
414.258	392.69
414.482	391.69
414.705	382.69
414.928	391.69
415.151	403.69
415.374	399.69
415.597	401.69
415.821	394.69
416.044	415.69
416.267	396.69
416.49	414.69
416.713	382.69
416.936	398.69
417.159	370.69
417.382	386.69
417.605	397.69
417.828	393.69
418.051	417.69
418.274	405.69
418.497	393.69
418.72	385.69
418.943	390.69
419.166	395.69
419.389	418.69
419.611	426.69
419.834	440.69
420.057	425.69
420.28	405.69
420.503	411.69
420.726	399.69
420.948	426.69
421.171	444.69
421.394	477.69
421.617	423.69
421.839	424.69
422.062	417.69
422.285	447.69
422.507	480.69
422.73	533.69
422.953	512.69
423.175	467.69
423.398	438.69
423.621	407.69
423.843	455.69
424.066	465.69
424.288	456.69
424.511	454.69
424.733	523.69
424.956	559.69
425.178	538.69
425.401	554.69
425.623	564.69
425.846	464.69
426.068	437.69
426.291	434.69
426.513	460.69
426.735	448.69
426.958	495.69
427.18	531.69
427.402	657.69
427.625	730.69
427.847	582.69
428.069	511.69
428.292	449.69
428.514	439.69
428.736	438.69
428.958	425.69
429.181	417.69
429.403	427.69
429.625	422.69
429.847	441.69
430.069	496.69
430.292	473.69
430.514	449.69
430.736	408.69
430.958	399.69
431.18	411.69
431.402	393.69
431.624	370.69
431.846	373.69
432.068	373.69
432.29	388.69
432.512	386.69
432.734	395.69
432.956	414.69
433.178	384.69
433.4	390.69
433.622	403.69
433.844	385.69
434.066	389.69
434.287	396.69
434.509	393.69
434.731	393.69
434.953	416.69
435.175	400.69
435.397	442.69
435.618	457.69
435.84	455.69
436.062	566.69
436.284	634.69
436.505	494.69
436.727	431.69
436.949	425.69
437.17	418.69
437.392	415.69
437.614	431.69
437.835	439.69
438.057	537.69
438.278	605.69
438.5	598.69
438.721	672.69
438.943	644.69
439.165	493.69
439.386	448.69
439.608	450.69
439.829	453.69
440.05	473.69
440.272	518.69
440.493	466.69
440.715	428.69
440.936	426.69
441.158	428.69
441.379	403.69
441.6	399.69
441.822	430.69
442.043	462.69
442.264	556.69
442.486	579.69
442.707	489.69
442.928	454.69
443.149	451.69
443.371	469.69
443.592	511.69
443.813	602.69
444.034	632.69
444.255	532.69
444.476	447.69
444.698	457.69
444.919	439.69
445.14	530.69
445.361	497.69
445.582	466.69
445.803	527.69
446.024	609.69
446.245	605.69
446.466	564.69
446.687	469.69
446.908	438.69
447.129	411.69
447.35	424.69
447.571	411.69
447.792	378.69
448.013	421.69
448.234	434.69
448.455	483.69
448.675	541.69
448.896	634.69
449.117	554.69
449.338	528.69
449.559	598.69
449.779	693.69
450	562.69
450.221	465.69
450.442	422.69
450.662	381.69
450.883	392.69
451.104	399.69
451.324	414.69
451.545	398.69
451.766	378.69
451.986	361.69
452.207	351.69
452.428	355.69
452.648	372.69
452.869	357.69
453.089	362.69
453.31	387.69
453.53	389.69
453.751	360.69
453.971	375.69
454.192	375.69
454.412	367.69
454.633	360.69
454.853	357.69
455.073	364.69
455.294	393.69
455.514	443.69
455.734	433.69
455.955	368.69
456.175	349.69
456.395	334.69
456.616	348.69
456.836	352.69
457.056	346.69
457.276	359.69
457.497	355.69
457.717	344.69
457.937	346.69
458.157	358.69
458.377	367.69
458.598	384.69
458.818	408.69
459.038	473.69
459.258	484.69
459.478	419.69
459.698	381.69
459.918	380.69
460.138	396.69
460.358	375.69
460.578	359.69
460.798	402.69
461.018	426.69
461.238	389.69
461.458	398.69
461.678	391.69
461.898	389.69
462.118	407.69
462.338	390.69
462.558	411.69
462.777	408.69
462.997	412.69
463.217	429.69
463.437	409.69
463.657	431.69
463.876	393.69
464.096	401.69
464.316	412.69
464.536	404.69
464.755	411.69
464.975	419.69
465.195	447.69
465.414	479.69
465.634	422.69
465.854	406.69
466.073	387.69
466.293	377.69
466.512	383.69
466.732	373.69
466.951	387.69
467.171	369.69
467.391	373.69
467.61	367.69
467.829	388.69
468.049	386.69
468.268	363.69
468.488	366.69
468.707	369.69
468.927	372.69
469.146	356.69
469.365	351.69
469.585	368.69
469.804	374.69
470.023	390.69
470.243	348.69
470.462	395.69
470.681	389.69
470.901	391.69
471.12	385.69
471.339	367.69
471.558	378.69
471.777	363.69
471.997	357.69
472.216	371.69
472.435	358.69
472.654	379.69
472.873	371.69
473.092	373.69
473.311	374.69
473.53	370.69
473.749	387.69
473.968	397.69
474.187	493.69
474.406	537.69
474.625	426.69
474.844	397.69
475.063	391.69
475.282	384.69
475.501	391.69
475.72	392.69
475.939	390.69
476.158	402.69
476.377	418.69
476.596	403.69
476.814	394.69
477.033	405.69
477.252	409.69
477.471	403.69
477.69	391.69
477.908	409.69
478.127	431.69
478.346	413.69
478.564	408.69
478.783	435.69
479.002	450.69
479.22	399.69
479.439	445.69
479.658	451.69
479.876	453.69
480.095	453.69
480.313	446.69
480.532	466.69
480.751	443.69
480.969	447.69
481.188	455.69
481.406	462.69
481.624	455.69
481.843	437.69
482.061	429.69
482.28	431.69
482.498	436.69
482.717	429.69
482.935	446.69
483.153	455.69
483.372	459.69
483.59	460.69
483.808	438.69
484.027	448.69
484.245	428.69
484.463	446.69
484.681	442.69
484.9	445.69
485.118	451.69
485.336	428.69
485.554	456.69
485.772	451.69
485.99	456.69
486.209	464.69
486.427	493.69
486.645	472.69
486.863	490.69
487.081	481.69
487.299	479.69
487.517	473.69
487.735	473.69
487.953	459.69
488.171	489.69
488.389	483.69
488.607	498.69
488.825	511.69
489.043	468.69
489.261	477.69
489.479	465.69
489.696	477.69
489.914	488.69
490.132	487.69
490.35	523.69
490.568	488.69
490.786	498.69
491.003	512.69
491.221	519.69
491.439	502.69
491.657	516.69
491.874	519.69
492.092	550.69
492.31	560.69
492.527	531.69
492.745	521.69
492.963	529.69
493.18	542.69
493.398	550.69
493.615	528.69
493.833	560.69
494.05	541.69
494.268	573.69
494.485	560.69
494.703	536.69
494.92	566.69
495.138	567.69
495.355	571.69
495.573	576.69
495.79	559.69
496.008	549.69
496.225	559.69
496.442	572.69
496.66	573.69
496.877	572.69
497.094	577.69
497.312	569.69
497.529	575.69
497.746	581.69
497.963	587.69
498.181	625.69
498.398	605.69
498.615	626.69
498.832	666.69
499.049	655.69
499.267	651.69
499.484	659.69
499.701	671.69
499.918	689.69
500.135	737.69
500.352	775.69
500.569	786.69
500.786	783.69
501.003	769.69
501.22	739.69
501.437	709.69
501.654	679.69
501.871	706.69
502.088	661.69
