Data from 1989.PennyLincolnUp.Lamp.En5.5.200Scan.071819.P2_HRD10591_17-23-13-973.txt Node
Date: Thu Jul 18 17:23:13 EDT 2019
User: cochatt
Spectrometer: HR+D1059
Trigger mode: 1
Integration Time (sec): 1.000000E-1
Scans to average: 1
Electric dark correction enabled: true
Nonlinearity correction enabled: false
Boxcar width: 0
XAxis mode: Wavelengths
Number of Pixels in Spectrum: 2048
>>>>>Begin Spectral Data<<<<<
223.165	-19.62
223.4	-19.62
223.635	-19.62
223.869	-4.62
224.104	-17.62
224.338	-14.62
224.573	-12.62
224.808	-5.62
225.042	-1.62
225.277	-6.62
225.511	15.38
225.746	1.38
225.98	3.38
226.215	9.38
226.449	9.38
226.683	11.38
226.918	16.38
227.152	16.38
227.387	38.38
227.621	41.38
227.856	41.38
228.09	52.38
228.324	61.38
228.559	52.38
228.793	62.38
229.027	102.38
229.262	93.38
229.496	102.38
229.73	117.38
229.964	129.38
230.199	113.38
230.433	106.38
230.667	101.38
230.901	103.38
231.136	106.38
231.37	114.38
231.604	105.38
231.838	123.38
232.072	106.38
232.306	107.38
232.541	108.38
232.775	114.38
233.009	117.38
233.243	116.38
233.477	104.38
233.711	110.38
233.945	103.38
234.179	113.38
234.413	108.38
234.647	106.38
234.881	114.38
235.115	117.38
235.349	113.38
235.583	115.38
235.817	118.38
236.051	125.38
236.285	128.38
236.519	108.38
236.753	142.38
236.987	126.38
237.221	173.38
237.455	190.38
237.689	175.38
237.922	143.38
238.156	125.38
238.39	121.38
238.624	114.38
238.858	121.38
239.091	135.38
239.325	130.38
239.559	110.38
239.793	123.38
240.027	123.38
240.26	122.38
240.494	151.38
240.728	142.38
240.961	137.38
241.195	123.38
241.429	133.38
241.662	133.38
241.896	127.38
242.13	134.38
242.363	125.38
242.597	134.38
242.83	149.38
243.064	128.38
243.298	117.38
243.531	130.38
243.765	136.38
243.998	125.38
244.232	147.38
244.465	129.38
244.699	135.38
244.932	141.38
245.166	137.38
245.399	151.38
245.633	152.38
245.866	162.38
246.099	145.38
246.333	143.38
246.566	142.38
246.8	158.38
247.033	157.38
247.266	148.38
247.5	161.38
247.733	150.38
247.966	151.38
248.2	174.38
248.433	171.38
248.666	175.38
248.899	181.38
249.133	194.38
249.366	195.38
249.599	176.38
249.832	160.38
250.066	166.38
250.299	162.38
250.532	192.38
250.765	190.38
250.998	215.38
251.231	203.38
251.465	187.38
251.698	188.38
251.931	181.38
252.164	177.38
252.397	189.38
252.63	181.38
252.863	190.38
253.096	199.38
253.329	215.38
253.562	219.38
253.795	218.38
254.028	227.38
254.261	213.38
254.494	211.38
254.727	238.38
254.96	239.38
255.193	233.38
255.426	228.38
255.659	218.38
255.892	231.38
256.124	207.38
256.357	206.38
256.59	195.38
256.823	204.38
257.056	200.38
257.289	201.38
257.521	194.38
257.754	201.38
257.987	192.38
258.22	191.38
258.452	184.38
258.685	189.38
258.918	196.38
259.151	204.38
259.383	235.38
259.616	197.38
259.849	198.38
260.081	219.38
260.314	244.38
260.547	230.38
260.779	225.38
261.012	213.38
261.244	204.38
261.477	220.38
261.71	214.38
261.942	230.38
262.175	246.38
262.407	203.38
262.64	225.38
262.872	196.38
263.105	196.38
263.337	214.38
263.57	209.38
263.802	229.38
264.035	218.38
264.267	203.38
264.499	208.38
264.732	222.38
264.964	217.38
265.197	192.38
265.429	230.38
265.661	205.38
265.894	203.38
266.126	225.38
266.358	217.38
266.591	211.38
266.823	199.38
267.055	203.38
267.287	223.38
267.52	218.38
267.752	241.38
267.984	230.38
268.216	229.38
268.448	212.38
268.681	232.38
268.913	257.38
269.145	248.38
269.377	247.38
269.609	259.38
269.841	281.38
270.073	243.38
270.306	266.38
270.538	292.38
270.77	283.38
271.002	279.38
271.234	277.38
271.466	274.38
271.698	293.38
271.93	287.38
272.162	294.38
272.394	288.38
272.626	293.38
272.858	284.38
273.09	255.38
273.322	241.38
273.553	243.38
273.785	249.38
274.017	247.38
274.249	257.38
274.481	240.38
274.713	260.38
274.945	263.38
275.176	251.38
275.408	254.38
275.64	253.38
275.872	255.38
276.104	270.38
276.335	275.38
276.567	263.38
276.799	270.38
277.031	287.38
277.262	287.38
277.494	307.38
277.726	292.38
277.957	272.38
278.189	269.38
278.421	265.38
278.652	263.38
278.884	266.38
279.115	263.38
279.347	292.38
279.579	295.38
279.81	279.38
280.042	283.38
280.273	275.38
280.505	272.38
280.736	265.38
280.968	262.38
281.199	264.38
281.431	271.38
281.662	265.38
281.894	268.38
282.125	267.38
282.356	282.38
282.588	283.38
282.819	298.38
283.051	267.38
283.282	277.38
283.513	278.38
283.745	279.38
283.976	298.38
284.207	273.38
284.439	283.38
284.67	268.38
284.901	268.38
285.132	280.38
285.364	281.38
285.595	292.38
285.826	259.38
286.057	279.38
286.288	267.38
286.52	264.38
286.751	259.38
286.982	267.38
287.213	273.38
287.444	291.38
287.675	276.38
287.906	291.38
288.138	297.38
288.369	298.38
288.6	300.38
288.831	292.38
289.062	279.38
289.293	295.38
289.524	268.38
289.755	284.38
289.986	284.38
290.217	278.38
290.448	289.38
290.679	282.38
290.91	277.38
291.141	287.38
291.371	302.38
291.602	277.38
291.833	293.38
292.064	282.38
292.295	286.38
292.526	276.38
292.757	280.38
292.987	262.38
293.218	289.38
293.449	281.38
293.68	278.38
293.91	274.38
294.141	287.38
294.372	276.38
294.603	272.38
294.833	291.38
295.064	279.38
295.295	283.38
295.525	274.38
295.756	302.38
295.987	296.38
296.217	303.38
296.448	305.38
296.679	299.38
296.909	281.38
297.14	300.38
297.37	284.38
297.601	282.38
297.831	307.38
298.062	284.38
298.292	295.38
298.523	292.38
298.753	298.38
298.984	293.38
299.214	291.38
299.445	285.38
299.675	300.38
299.905	291.38
300.136	291.38
300.366	311.38
300.597	297.38
300.827	329.38
301.057	300.38
301.288	329.38
301.518	315.38
301.748	301.38
301.979	315.38
302.209	303.38
302.439	319.38
302.669	303.38
302.9	323.38
303.13	318.38
303.36	318.38
303.59	316.38
303.82	330.38
304.051	321.38
304.281	329.38
304.511	316.38
304.741	318.38
304.971	317.38
305.201	317.38
305.431	316.38
305.661	319.38
305.891	310.38
306.121	334.38
306.352	324.38
306.582	316.38
306.812	344.38
307.042	330.38
307.272	334.38
307.502	314.38
307.731	329.38
307.961	320.38
308.191	319.38
308.421	333.38
308.651	321.38
308.881	311.38
309.111	355.38
309.341	331.38
309.571	356.38
309.8	341.38
310.03	342.38
310.26	351.38
310.49	351.38
310.72	382.38
310.949	358.38
311.179	373.38
311.409	368.38
311.639	381.38
311.868	361.38
312.098	348.38
312.328	356.38
312.557	378.38
312.787	383.38
313.017	381.38
313.246	376.38
313.476	346.38
313.706	363.38
313.935	365.38
314.165	381.38
314.394	374.38
314.624	372.38
314.853	375.38
315.083	369.38
315.312	354.38
315.542	369.38
315.771	355.38
316.001	358.38
316.23	381.38
316.46	369.38
316.689	348.38
316.919	369.38
317.148	399.38
317.377	384.38
317.607	364.38
317.836	363.38
318.065	370.38
318.295	372.38
318.524	351.38
318.753	363.38
318.983	355.38
319.212	373.38
319.441	375.38
319.67	380.38
319.9	360.38
320.129	368.38
320.358	378.38
320.587	370.38
320.816	382.38
321.046	376.38
321.275	382.38
321.504	361.38
321.733	366.38
321.962	379.38
322.191	383.38
322.42	420.38
322.649	415.38
322.878	425.38
323.108	426.38
323.337	423.38
323.566	464.38
323.795	489.38
324.024	519.38
324.253	619.38
324.482	901.38
324.71	1297.38
324.939	1769.38
325.168	1450.38
325.397	774.38
325.626	545.38
325.855	501.38
326.084	465.38
326.313	452.38
326.542	463.38
326.77	492.38
326.999	603.38
327.228	803.38
327.457	1126.38
327.686	1281.38
327.914	879.38
328.143	595.38
328.372	531.38
328.6	494.38
328.829	479.38
329.058	510.38
329.287	518.38
329.515	488.38
329.744	468.38
329.972	429.38
330.201	452.38
330.43	465.38
330.658	493.38
330.887	515.38
331.115	518.38
331.344	454.38
331.572	436.38
331.801	440.38
332.03	437.38
332.258	444.38
332.486	419.38
332.715	412.38
332.943	397.38
333.172	414.38
333.4	420.38
333.629	423.38
333.857	408.38
334.085	437.38
334.314	419.38
334.542	421.38
334.771	437.38
334.999	438.38
335.227	416.38
335.455	435.38
335.684	420.38
335.912	407.38
336.14	405.38
336.369	411.38
336.597	435.38
336.825	430.38
337.053	393.38
337.281	409.38
337.51	408.38
337.738	418.38
337.966	386.38
338.194	418.38
338.422	426.38
338.65	415.38
338.878	383.38
339.106	405.38
339.334	398.38
339.562	406.38
339.79	399.38
340.018	403.38
340.246	398.38
340.474	406.38
340.702	388.38
340.93	413.38
341.158	401.38
341.386	405.38
341.614	398.38
341.842	413.38
342.07	385.38
342.298	409.38
342.526	389.38
342.754	387.38
342.981	404.38
343.209	394.38
343.437	389.38
343.665	389.38
343.893	386.38
344.12	422.38
344.348	413.38
344.576	420.38
344.804	419.38
345.031	404.38
345.259	405.38
345.487	391.38
345.714	407.38
345.942	412.38
346.17	405.38
346.397	388.38
346.625	385.38
346.853	390.38
347.08	391.38
347.308	385.38
347.535	395.38
347.763	398.38
347.99	393.38
348.218	385.38
348.445	387.38
348.673	394.38
348.9	374.38
349.128	388.38
349.355	361.38
349.583	366.38
349.81	373.38
350.037	377.38
350.265	352.38
350.492	384.38
350.72	360.38
350.947	385.38
351.174	387.38
351.402	392.38
351.629	392.38
351.856	377.38
352.083	365.38
352.311	396.38
352.538	416.38
352.765	420.38
352.992	370.38
353.22	373.38
353.447	387.38
353.674	403.38
353.901	384.38
354.128	376.38
354.355	348.38
354.583	372.38
354.81	382.38
355.037	363.38
355.264	355.38
355.491	348.38
355.718	374.38
355.945	347.38
356.172	337.38
356.399	364.38
356.626	331.38
356.853	374.38
357.08	371.38
357.307	365.38
357.534	372.38
357.761	365.38
357.988	369.38
358.215	351.38
358.441	374.38
358.668	355.38
358.895	360.38
359.122	360.38
359.349	386.38
359.576	385.38
359.802	370.38
360.029	401.38
360.256	421.38
360.483	398.38
360.709	379.38
360.936	361.38
361.163	382.38
361.39	355.38
361.616	375.38
361.843	375.38
362.07	389.38
362.296	390.38
362.523	355.38
362.749	373.38
362.976	373.38
363.203	357.38
363.429	358.38
363.656	376.38
363.882	379.38
364.109	366.38
364.335	373.38
364.562	357.38
364.788	353.38
365.015	362.38
365.241	347.38
365.468	362.38
365.694	361.38
365.92	372.38
366.147	375.38
366.373	326.38
366.599	353.38
366.826	350.38
367.052	356.38
367.278	342.38
367.505	352.38
367.731	381.38
367.957	369.38
368.184	357.38
368.41	365.38
368.636	374.38
368.862	355.38
369.089	353.38
369.315	365.38
369.541	346.38
369.767	353.38
369.993	341.38
370.219	346.38
370.445	365.38
370.672	356.38
370.898	360.38
371.124	354.38
371.35	368.38
371.576	344.38
371.802	355.38
372.028	349.38
372.254	349.38
372.48	372.38
372.706	359.38
372.932	345.38
373.158	349.38
373.384	350.38
373.61	362.38
373.835	354.38
374.061	357.38
374.287	345.38
374.513	331.38
374.739	359.38
374.965	348.38
375.191	364.38
375.416	382.38
375.642	349.38
375.868	347.38
376.094	381.38
376.319	361.38
376.545	347.38
376.771	361.38
376.997	359.38
377.222	355.38
377.448	369.38
377.674	359.38
377.899	356.38
378.125	351.38
378.35	359.38
378.576	338.38
378.802	347.38
379.027	361.38
379.253	351.38
379.478	363.38
379.704	354.38
379.929	347.38
380.155	356.38
380.38	350.38
380.606	355.38
380.831	349.38
381.057	352.38
381.282	370.38
381.507	355.38
381.733	352.38
381.958	361.38
382.184	342.38
382.409	360.38
382.634	355.38
382.86	346.38
383.085	348.38
383.31	337.38
383.535	377.38
383.761	351.38
383.986	371.38
384.211	370.38
384.436	365.38
384.662	343.38
384.887	380.38
385.112	381.38
385.337	382.38
385.562	381.38
385.787	376.38
386.013	407.38
386.238	400.38
386.463	387.38
386.688	389.38
386.913	378.38
387.138	382.38
387.363	382.38
387.588	376.38
387.813	374.38
388.038	372.38
388.263	377.38
388.488	363.38
388.713	379.38
388.938	358.38
389.163	371.38
389.387	372.38
389.612	345.38
389.837	357.38
390.062	360.38
390.287	371.38
390.512	363.38
390.736	372.38
390.961	380.38
391.186	367.38
391.411	379.38
391.636	366.38
391.86	365.38
392.085	398.38
392.31	380.38
392.534	386.38
392.759	387.38
392.984	385.38
393.208	410.38
393.433	463.38
393.658	450.38
393.882	386.38
394.107	370.38
394.331	387.38
394.556	379.38
394.78	399.38
395.005	364.38
395.229	377.38
395.454	373.38
395.678	384.38
395.903	392.38
396.127	410.38
396.352	412.38
396.576	414.38
396.801	410.38
397.025	433.38
397.249	405.38
397.474	404.38
397.698	387.38
397.922	408.38
398.147	403.38
398.371	407.38
398.595	405.38
398.82	403.38
399.044	439.38
399.268	423.38
399.492	438.38
399.717	462.38
399.941	475.38
400.165	501.38
400.389	490.38
400.613	445.38
400.837	414.38
401.062	423.38
401.286	429.38
401.51	438.38
401.734	414.38
401.958	421.38
402.182	405.38
402.406	439.38
402.63	445.38
402.854	434.38
403.078	418.38
403.302	426.38
403.526	435.38
403.75	425.38
403.974	411.38
404.198	415.38
404.422	434.38
404.645	417.38
404.869	441.38
405.093	419.38
405.317	451.38
405.541	440.38
405.765	411.38
405.988	430.38
406.212	429.38
406.436	451.38
406.66	451.38
406.883	444.38
407.107	467.38
407.331	505.38
407.555	552.38
407.778	558.38
408.002	517.38
408.226	456.38
408.449	461.38
408.673	478.38
408.896	506.38
409.12	523.38
409.344	487.38
409.567	449.38
409.791	426.38
410.014	410.38
410.238	442.38
410.461	406.38
410.685	406.38
410.908	442.38
411.132	440.38
411.355	474.38
411.578	464.38
411.802	416.38
412.025	406.38
412.249	407.38
412.472	419.38
412.695	395.38
412.919	396.38
413.142	409.38
413.365	413.38
413.589	423.38
413.812	387.38
414.035	389.38
414.258	403.38
414.482	398.38
414.705	395.38
414.928	374.38
415.151	374.38
415.374	398.38
415.597	379.38
415.821	405.38
416.044	399.38
416.267	402.38
416.49	399.38
416.713	389.38
416.936	388.38
417.159	381.38
417.382	386.38
417.605	390.38
417.828	407.38
418.051	398.38
418.274	403.38
418.497	396.38
418.72	403.38
418.943	391.38
419.166	413.38
419.389	422.38
419.611	402.38
419.834	414.38
420.057	407.38
420.28	400.38
420.503	399.38
420.726	390.38
420.948	421.38
421.171	431.38
421.394	466.38
421.617	447.38
421.839	393.38
422.062	407.38
422.285	419.38
422.507	470.38
422.73	533.38
422.953	524.38
423.175	451.38
423.398	429.38
423.621	425.38
423.843	423.38
424.066	454.38
424.288	424.38
424.511	446.38
424.733	476.38
424.956	534.38
425.178	527.38
425.401	553.38
425.623	538.38
425.846	444.38
426.068	421.38
426.291	456.38
426.513	462.38
426.735	456.38
426.958	477.38
427.18	529.38
427.402	643.38
427.625	689.38
427.847	596.38
428.069	505.38
428.292	469.38
428.514	431.38
428.736	407.38
428.958	423.38
429.181	403.38
429.403	400.38
429.625	412.38
429.847	433.38
430.069	484.38
430.292	493.38
430.514	412.38
430.736	405.38
430.958	416.38
431.18	391.38
431.402	391.38
431.624	386.38
431.846	366.38
432.068	389.38
432.29	400.38
432.512	409.38
432.734	394.38
432.956	389.38
433.178	387.38
433.4	386.38
433.622	397.38
433.844	383.38
434.066	373.38
434.287	370.38
434.509	390.38
434.731	394.38
434.953	410.38
435.175	409.38
435.397	423.38
435.618	430.38
435.84	471.38
436.062	528.38
436.284	591.38
436.505	469.38
436.727	447.38
436.949	421.38
437.17	411.38
437.392	397.38
437.614	436.38
437.835	440.38
438.057	521.38
438.278	594.38
438.5	589.38
438.721	625.38
438.943	633.38
439.165	490.38
439.386	467.38
439.608	458.38
439.829	441.38
440.05	441.38
440.272	503.38
440.493	446.38
440.715	415.38
440.936	414.38
441.158	397.38
441.379	403.38
441.6	399.38
441.822	443.38
442.043	454.38
442.264	527.38
442.486	547.38
442.707	468.38
442.928	447.38
443.149	441.38
443.371	467.38
443.592	494.38
443.813	582.38
444.034	625.38
444.255	498.38
444.476	452.38
444.698	435.38
444.919	439.38
445.14	520.38
445.361	482.38
445.582	487.38
445.803	533.38
446.024	598.38
446.245	601.38
446.466	550.38
446.687	459.38
446.908	434.38
447.129	424.38
447.35	412.38
447.571	406.38
447.792	387.38
448.013	418.38
448.234	408.38
448.455	471.38
448.675	545.38
448.896	648.38
449.117	525.38
449.338	515.38
449.559	612.38
449.779	696.38
450	549.38
450.221	460.38
450.442	410.38
450.662	403.38
450.883	427.38
451.104	392.38
451.324	385.38
451.545	374.38
451.766	366.38
451.986	357.38
452.207	370.38
452.428	380.38
452.648	377.38
452.869	354.38
453.089	369.38
453.31	377.38
453.53	347.38
453.751	346.38
453.971	384.38
454.192	362.38
454.412	355.38
454.633	361.38
454.853	355.38
455.073	363.38
455.294	382.38
455.514	443.38
455.734	427.38
455.955	374.38
456.175	339.38
456.395	351.38
456.616	355.38
456.836	356.38
457.056	342.38
457.276	345.38
457.497	337.38
457.717	350.38
457.937	356.38
458.157	336.38
458.377	353.38
458.598	372.38
458.818	418.38
459.038	445.38
459.258	485.38
459.478	406.38
459.698	389.38
459.918	385.38
460.138	370.38
460.358	385.38
460.578	395.38
460.798	378.38
461.018	385.38
461.238	425.38
461.458	382.38
461.678	379.38
461.898	397.38
462.118	390.38
462.338	392.38
462.558	384.38
462.777	387.38
462.997	417.38
463.217	422.38
463.437	423.38
463.657	401.38
463.876	414.38
464.096	407.38
464.316	409.38
464.536	417.38
464.755	415.38
464.975	415.38
465.195	445.38
465.414	499.38
465.634	429.38
465.854	413.38
466.073	396.38
466.293	398.38
466.512	364.38
466.732	387.38
466.951	353.38
467.171	362.38
467.391	377.38
467.61	381.38
467.829	379.38
468.049	377.38
468.268	356.38
468.488	359.38
468.707	368.38
468.927	354.38
469.146	357.38
469.365	373.38
469.585	378.38
469.804	358.38
470.023	377.38
470.243	353.38
470.462	353.38
470.681	385.38
470.901	390.38
471.12	384.38
471.339	359.38
471.558	366.38
471.777	391.38
471.997	373.38
472.216	353.38
472.435	366.38
472.654	365.38
472.873	350.38
473.092	363.38
473.311	383.38
473.53	379.38
473.749	391.38
473.968	442.38
474.187	514.38
474.406	519.38
474.625	402.38
474.844	381.38
475.063	375.38
475.282	388.38
475.501	402.38
475.72	389.38
475.939	401.38
476.158	376.38
476.377	378.38
476.596	370.38
476.814	382.38
477.033	411.38
477.252	397.38
477.471	395.38
477.69	395.38
477.908	393.38
478.127	414.38
478.346	424.38
478.564	427.38
478.783	420.38
479.002	431.38
479.22	419.38
479.439	451.38
479.658	454.38
479.876	447.38
480.095	452.38
480.313	479.38
480.532	453.38
480.751	451.38
480.969	446.38
481.188	469.38
481.406	449.38
481.624	430.38
481.843	457.38
482.061	427.38
482.28	440.38
482.498	427.38
482.717	448.38
482.935	450.38
483.153	445.38
483.372	443.38
483.59	428.38
483.808	427.38
484.027	409.38
484.245	440.38
484.463	443.38
484.681	436.38
484.9	458.38
485.118	459.38
485.336	457.38
485.554	465.38
485.772	474.38
485.99	461.38
486.209	459.38
486.427	443.38
486.645	456.38
486.863	459.38
487.081	467.38
487.299	465.38
487.517	451.38
487.735	461.38
487.953	456.38
488.171	457.38
488.389	469.38
488.607	478.38
488.825	472.38
489.043	452.38
489.261	468.38
489.479	481.38
489.696	462.38
489.914	504.38
490.132	479.38
490.35	481.38
490.568	500.38
490.786	503.38
491.003	486.38
491.221	477.38
491.439	502.38
491.657	518.38
491.874	534.38
492.092	539.38
492.31	522.38
492.527	494.38
492.745	531.38
492.963	547.38
493.18	532.38
493.398	531.38
493.615	531.38
493.833	523.38
494.05	553.38
494.268	523.38
494.485	553.38
494.703	538.38
494.92	544.38
495.138	546.38
495.355	541.38
495.573	561.38
495.79	547.38
496.008	549.38
496.225	565.38
496.442	540.38
496.66	547.38
496.877	531.38
497.094	541.38
497.312	566.38
497.529	572.38
497.746	557.38
497.963	572.38
498.181	584.38
498.398	598.38
498.615	597.38
498.832	609.38
499.049	617.38
499.267	611.38
499.484	635.38
499.701	665.38
499.918	717.38
500.135	693.38
500.352	725.38
500.569	721.38
500.786	748.38
501.003	751.38
501.22	717.38
501.437	672.38
501.654	686.38
501.871	693.38
502.088	654.38
