Data from 1989.PennyLincolnUp.Lamp.En5.5.200Scan.071819.P2_HRD10591_17-25-39-973.txt Node
Date: Thu Jul 18 17:25:39 EDT 2019
User: cochatt
Spectrometer: HR+D1059
Trigger mode: 1
Integration Time (sec): 1.000000E-1
Scans to average: 1
Electric dark correction enabled: true
Nonlinearity correction enabled: false
Boxcar width: 0
XAxis mode: Wavelengths
Number of Pixels in Spectrum: 2048
>>>>>Begin Spectral Data<<<<<
223.165	-21.5
223.4	-21.5
223.635	-21.5
223.869	-5.5
224.104	-30.5
224.338	-25.5
224.573	-14.5
224.808	-14.5
225.042	-0.5
225.277	-4.5
225.511	0.5
225.746	-4.5
225.98	2.5
226.215	25.5
226.449	17.5
226.683	14.5
226.918	26.5
227.152	34.5
227.387	41.5
227.621	51.5
227.856	46.5
228.09	54.5
228.324	63.5
228.559	50.5
228.793	80.5
229.027	92.5
229.262	128.5
229.496	118.5
229.73	144.5
229.964	167.5
230.199	143.5
230.433	128.5
230.667	129.5
230.901	110.5
231.136	114.5
231.37	108.5
231.604	117.5
231.838	112.5
232.072	126.5
232.306	123.5
232.541	116.5
232.775	116.5
233.009	126.5
233.243	121.5
233.477	121.5
233.711	110.5
233.945	130.5
234.179	126.5
234.413	109.5
234.647	106.5
234.881	108.5
235.115	124.5
235.349	123.5
235.583	131.5
235.817	131.5
236.051	142.5
236.285	131.5
236.519	127.5
236.753	133.5
236.987	153.5
237.221	196.5
237.455	262.5
237.689	209.5
237.922	151.5
238.156	151.5
238.39	143.5
238.624	143.5
238.858	135.5
239.091	125.5
239.325	133.5
239.559	141.5
239.793	131.5
240.027	149.5
240.26	157.5
240.494	169.5
240.728	170.5
240.961	149.5
241.195	168.5
241.429	153.5
241.662	140.5
241.896	135.5
242.13	149.5
242.363	138.5
242.597	138.5
242.83	160.5
243.064	146.5
243.298	156.5
243.531	148.5
243.765	154.5
243.998	164.5
244.232	163.5
244.465	158.5
244.699	156.5
244.932	158.5
245.166	159.5
245.399	158.5
245.633	148.5
245.866	150.5
246.099	152.5
246.333	159.5
246.566	160.5
246.8	160.5
247.033	172.5
247.266	169.5
247.5	173.5
247.733	180.5
247.966	180.5
248.2	173.5
248.433	191.5
248.666	192.5
248.899	182.5
249.133	218.5
249.366	237.5
249.599	214.5
249.832	192.5
250.066	188.5
250.299	202.5
250.532	213.5
250.765	218.5
250.998	251.5
251.231	265.5
251.465	244.5
251.698	227.5
251.931	228.5
252.164	205.5
252.397	219.5
252.63	220.5
252.863	229.5
253.096	260.5
253.329	242.5
253.562	237.5
253.795	231.5
254.028	246.5
254.261	250.5
254.494	256.5
254.727	299.5
254.96	322.5
255.193	305.5
255.426	287.5
255.659	283.5
255.892	252.5
256.124	255.5
256.357	272.5
256.59	257.5
256.823	246.5
257.056	243.5
257.289	253.5
257.521	243.5
257.754	244.5
257.987	217.5
258.22	234.5
258.452	237.5
258.685	232.5
258.918	229.5
259.151	235.5
259.383	233.5
259.616	251.5
259.849	244.5
260.081	271.5
260.314	285.5
260.547	284.5
260.779	279.5
261.012	276.5
261.244	267.5
261.477	254.5
261.71	256.5
261.942	252.5
262.175	272.5
262.407	249.5
262.64	248.5
262.872	238.5
263.105	226.5
263.337	232.5
263.57	246.5
263.802	239.5
264.035	232.5
264.267	235.5
264.499	233.5
264.732	229.5
264.964	235.5
265.197	235.5
265.429	235.5
265.661	238.5
265.894	217.5
266.126	242.5
266.358	235.5
266.591	249.5
266.823	259.5
267.055	240.5
267.287	266.5
267.52	249.5
267.752	262.5
267.984	268.5
268.216	265.5
268.448	260.5
268.681	267.5
268.913	286.5
269.145	295.5
269.377	314.5
269.609	303.5
269.841	285.5
270.073	302.5
270.306	341.5
270.538	347.5
270.77	358.5
271.002	332.5
271.234	332.5
271.466	362.5
271.698	377.5
271.93	346.5
272.162	364.5
272.394	360.5
272.626	342.5
272.858	323.5
273.09	310.5
273.322	303.5
273.553	297.5
273.785	287.5
274.017	302.5
274.249	282.5
274.481	301.5
274.713	300.5
274.945	288.5
275.176	275.5
275.408	286.5
275.64	285.5
275.872	282.5
276.104	287.5
276.335	300.5
276.567	296.5
276.799	331.5
277.031	344.5
277.262	374.5
277.494	364.5
277.726	350.5
277.957	316.5
278.189	310.5
278.421	308.5
278.652	300.5
278.884	307.5
279.115	289.5
279.347	306.5
279.579	293.5
279.81	296.5
280.042	302.5
280.273	297.5
280.505	285.5
280.736	291.5
280.968	299.5
281.199	297.5
281.431	283.5
281.662	288.5
281.894	295.5
282.125	310.5
282.356	322.5
282.588	320.5
282.819	335.5
283.051	287.5
283.282	284.5
283.513	295.5
283.745	303.5
283.976	308.5
284.207	317.5
284.439	302.5
284.67	297.5
284.901	287.5
285.132	297.5
285.364	298.5
285.595	313.5
285.826	318.5
286.057	303.5
286.288	308.5
286.52	299.5
286.751	303.5
286.982	300.5
287.213	310.5
287.444	300.5
287.675	300.5
287.906	323.5
288.138	326.5
288.369	331.5
288.6	330.5
288.831	328.5
289.062	299.5
289.293	328.5
289.524	326.5
289.755	318.5
289.986	317.5
290.217	298.5
290.448	302.5
290.679	323.5
290.91	316.5
291.141	294.5
291.371	311.5
291.602	304.5
291.833	306.5
292.064	320.5
292.295	307.5
292.526	293.5
292.757	309.5
292.987	317.5
293.218	314.5
293.449	323.5
293.68	298.5
293.91	313.5
294.141	311.5
294.372	302.5
294.603	314.5
294.833	297.5
295.064	316.5
295.295	318.5
295.525	334.5
295.756	330.5
295.987	341.5
296.217	356.5
296.448	355.5
296.679	321.5
296.909	328.5
297.14	307.5
297.37	316.5
297.601	334.5
297.831	321.5
298.062	327.5
298.292	316.5
298.523	336.5
298.753	295.5
298.984	313.5
299.214	324.5
299.445	337.5
299.675	335.5
299.905	322.5
300.136	327.5
300.366	329.5
300.597	322.5
300.827	342.5
301.057	356.5
301.288	359.5
301.518	339.5
301.748	329.5
301.979	334.5
302.209	320.5
302.439	340.5
302.669	358.5
302.9	341.5
303.13	357.5
303.36	379.5
303.59	372.5
303.82	373.5
304.051	365.5
304.281	328.5
304.511	339.5
304.741	343.5
304.971	335.5
305.201	336.5
305.431	350.5
305.661	327.5
305.891	362.5
306.121	326.5
306.352	371.5
306.582	375.5
306.812	359.5
307.042	334.5
307.272	340.5
307.502	356.5
307.731	358.5
307.961	334.5
308.191	354.5
308.421	347.5
308.651	359.5
308.881	351.5
309.111	376.5
309.341	368.5
309.571	384.5
309.8	376.5
310.03	390.5
310.26	392.5
310.49	399.5
310.72	432.5
310.949	453.5
311.179	435.5
311.409	411.5
311.639	404.5
311.868	413.5
312.098	423.5
312.328	414.5
312.557	467.5
312.787	459.5
313.017	453.5
313.246	421.5
313.476	397.5
313.706	413.5
313.935	437.5
314.165	439.5
314.394	440.5
314.624	437.5
314.853	438.5
315.083	428.5
315.312	403.5
315.542	404.5
315.771	403.5
316.001	392.5
316.23	383.5
316.46	396.5
316.689	412.5
316.919	408.5
317.148	436.5
317.377	446.5
317.607	391.5
317.836	421.5
318.065	427.5
318.295	405.5
318.524	416.5
318.753	400.5
318.983	407.5
319.212	422.5
319.441	427.5
319.67	419.5
319.9	426.5
320.129	404.5
320.358	401.5
320.587	410.5
320.816	422.5
321.046	433.5
321.275	454.5
321.504	425.5
321.733	453.5
321.962	436.5
322.191	458.5
322.42	461.5
322.649	480.5
322.878	493.5
323.108	504.5
323.337	550.5
323.566	575.5
323.795	582.5
324.024	647.5
324.253	813.5
324.482	1140.5
324.71	1795.5
324.939	2635.5
325.168	2271.5
325.397	1123.5
325.626	780.5
325.855	640.5
326.084	618.5
326.313	576.5
326.542	576.5
326.77	635.5
326.999	756.5
327.228	1028.5
327.457	1563.5
327.686	1951.5
327.914	1345.5
328.143	832.5
328.372	729.5
328.6	685.5
328.829	648.5
329.058	650.5
329.287	692.5
329.515	629.5
329.744	559.5
329.972	593.5
330.201	592.5
330.43	662.5
330.658	692.5
330.887	694.5
331.115	672.5
331.344	567.5
331.572	522.5
331.801	570.5
332.03	550.5
332.258	534.5
332.486	493.5
332.715	470.5
332.943	468.5
333.172	487.5
333.4	468.5
333.629	487.5
333.857	533.5
334.085	528.5
334.314	568.5
334.542	620.5
334.771	624.5
334.999	563.5
335.227	521.5
335.455	482.5
335.684	498.5
335.912	471.5
336.14	466.5
336.369	504.5
336.597	492.5
336.825	486.5
337.053	487.5
337.281	459.5
337.51	468.5
337.738	450.5
337.966	467.5
338.194	460.5
338.422	456.5
338.65	457.5
338.878	436.5
339.106	434.5
339.334	460.5
339.562	438.5
339.79	456.5
340.018	429.5
340.246	461.5
340.474	454.5
340.702	455.5
340.93	469.5
341.158	438.5
341.386	456.5
341.614	445.5
341.842	446.5
342.07	437.5
342.298	469.5
342.526	438.5
342.754	429.5
342.981	445.5
343.209	428.5
343.437	442.5
343.665	448.5
343.893	431.5
344.12	459.5
344.348	455.5
344.576	451.5
344.804	463.5
345.031	472.5
345.259	482.5
345.487	455.5
345.714	431.5
345.942	438.5
346.17	442.5
346.397	421.5
346.625	430.5
346.853	444.5
347.08	440.5
347.308	452.5
347.535	452.5
347.763	460.5
347.99	439.5
348.218	440.5
348.445	466.5
348.673	448.5
348.9	436.5
349.128	441.5
349.355	425.5
349.583	421.5
349.81	421.5
350.037	423.5
350.265	408.5
350.492	415.5
350.72	394.5
350.947	400.5
351.174	435.5
351.402	436.5
351.629	461.5
351.856	440.5
352.083	427.5
352.311	445.5
352.538	456.5
352.765	435.5
352.992	436.5
353.22	426.5
353.447	423.5
353.674	411.5
353.901	396.5
354.128	410.5
354.355	403.5
354.583	404.5
354.81	440.5
355.037	403.5
355.264	404.5
355.491	381.5
355.718	397.5
355.945	389.5
356.172	394.5
356.399	383.5
356.626	389.5
356.853	387.5
357.08	397.5
357.307	401.5
357.534	382.5
357.761	394.5
357.988	386.5
358.215	399.5
358.441	404.5
358.668	394.5
358.895	398.5
359.122	397.5
359.349	418.5
359.576	427.5
359.802	456.5
360.029	486.5
360.256	493.5
360.483	483.5
360.709	437.5
360.936	429.5
361.163	439.5
361.39	440.5
361.616	434.5
361.843	440.5
362.07	450.5
362.296	424.5
362.523	427.5
362.749	428.5
362.976	427.5
363.203	430.5
363.429	399.5
363.656	411.5
363.882	401.5
364.109	403.5
364.335	395.5
364.562	403.5
364.788	403.5
365.015	404.5
365.241	406.5
365.468	395.5
365.694	399.5
365.92	417.5
366.147	399.5
366.373	389.5
366.599	410.5
366.826	392.5
367.052	375.5
367.278	399.5
367.505	385.5
367.731	394.5
367.957	401.5
368.184	386.5
368.41	400.5
368.636	394.5
368.862	412.5
369.089	413.5
369.315	401.5
369.541	388.5
369.767	389.5
369.993	424.5
370.219	407.5
370.445	400.5
370.672	397.5
370.898	400.5
371.124	390.5
371.35	370.5
371.576	393.5
371.802	377.5
372.028	368.5
372.254	376.5
372.48	406.5
372.706	390.5
372.932	405.5
373.158	383.5
373.384	394.5
373.61	382.5
373.835	389.5
374.061	389.5
374.287	391.5
374.513	395.5
374.739	410.5
374.965	384.5
375.191	408.5
375.416	396.5
375.642	411.5
375.868	397.5
376.094	408.5
376.319	375.5
376.545	384.5
376.771	382.5
376.997	403.5
377.222	382.5
377.448	400.5
377.674	393.5
377.899	386.5
378.125	379.5
378.35	394.5
378.576	406.5
378.802	380.5
379.027	374.5
379.253	386.5
379.478	376.5
379.704	386.5
379.929	371.5
380.155	396.5
380.38	398.5
380.606	384.5
380.831	376.5
381.057	413.5
381.282	400.5
381.507	380.5
381.733	394.5
381.958	388.5
382.184	380.5
382.409	379.5
382.634	394.5
382.86	392.5
383.085	383.5
383.31	375.5
383.535	406.5
383.761	408.5
383.986	394.5
384.211	390.5
384.436	396.5
384.662	404.5
384.887	410.5
385.112	404.5
385.337	419.5
385.562	393.5
385.787	408.5
386.013	418.5
386.238	418.5
386.463	426.5
386.688	409.5
386.913	415.5
387.138	403.5
387.363	412.5
387.588	404.5
387.813	407.5
388.038	419.5
388.263	403.5
388.488	408.5
388.713	405.5
388.938	397.5
389.163	410.5
389.387	418.5
389.612	409.5
389.837	398.5
390.062	394.5
390.287	391.5
390.512	398.5
390.736	414.5
390.961	394.5
391.186	407.5
391.411	410.5
391.636	396.5
391.86	387.5
392.085	414.5
392.31	406.5
392.534	405.5
392.759	418.5
392.984	417.5
393.208	419.5
393.433	401.5
393.658	394.5
393.882	410.5
394.107	420.5
394.331	409.5
394.556	427.5
394.78	409.5
395.005	404.5
395.229	430.5
395.454	395.5
395.678	410.5
395.903	422.5
396.127	458.5
396.352	433.5
396.576	422.5
396.801	425.5
397.025	414.5
397.249	425.5
397.474	414.5
397.698	427.5
397.922	453.5
398.147	452.5
398.371	471.5
398.595	436.5
398.82	453.5
399.044	459.5
399.268	464.5
399.492	486.5
399.717	487.5
399.941	536.5
400.165	550.5
400.389	587.5
400.613	529.5
400.837	501.5
401.062	478.5
401.286	459.5
401.51	470.5
401.734	447.5
401.958	438.5
402.182	459.5
402.406	487.5
402.63	469.5
402.854	476.5
403.078	492.5
403.302	464.5
403.526	471.5
403.75	498.5
403.974	472.5
404.198	474.5
404.422	487.5
404.645	475.5
404.869	502.5
405.093	514.5
405.317	548.5
405.541	606.5
405.765	554.5
405.988	518.5
406.212	500.5
406.436	523.5
406.66	518.5
406.883	533.5
407.107	535.5
407.331	592.5
407.555	640.5
407.778	646.5
408.002	585.5
408.226	540.5
408.449	528.5
408.673	540.5
408.896	564.5
409.12	599.5
409.344	570.5
409.567	501.5
409.791	508.5
410.014	472.5
410.238	499.5
410.461	481.5
410.685	467.5
410.908	515.5
411.132	535.5
411.355	556.5
411.578	552.5
411.802	484.5
412.025	492.5
412.249	515.5
412.472	510.5
412.695	567.5
412.919	562.5
413.142	501.5
413.365	472.5
413.589	467.5
413.812	451.5
414.035	461.5
414.258	443.5
414.482	452.5
414.705	459.5
414.928	451.5
415.151	473.5
415.374	452.5
415.597	440.5
415.821	457.5
416.044	469.5
416.267	441.5
416.49	431.5
416.713	447.5
416.936	444.5
417.159	447.5
417.382	460.5
417.605	460.5
417.828	471.5
418.051	487.5
418.274	462.5
418.497	458.5
418.72	465.5
418.943	444.5
419.166	469.5
419.389	463.5
419.611	468.5
419.834	477.5
420.057	490.5
420.28	486.5
420.503	489.5
420.726	482.5
420.948	520.5
421.171	543.5
421.394	559.5
421.617	518.5
421.839	469.5
422.062	473.5
422.285	494.5
422.507	529.5
422.73	623.5
422.953	600.5
423.175	526.5
423.398	494.5
423.621	500.5
423.843	550.5
424.066	543.5
424.288	530.5
424.511	566.5
424.733	589.5
424.956	690.5
425.178	632.5
425.401	632.5
425.623	688.5
425.846	573.5
426.068	536.5
426.291	526.5
426.513	492.5
426.735	525.5
426.958	574.5
427.18	645.5
427.402	784.5
427.625	867.5
427.847	795.5
428.069	678.5
428.292	556.5
428.514	530.5
428.736	497.5
428.958	502.5
429.181	488.5
429.403	484.5
429.625	502.5
429.847	530.5
430.069	602.5
430.292	586.5
430.514	522.5
430.736	479.5
430.958	482.5
431.18	427.5
431.402	454.5
431.624	468.5
431.846	450.5
432.068	438.5
432.29	430.5
432.512	455.5
432.734	452.5
432.956	479.5
433.178	463.5
433.4	479.5
433.622	444.5
433.844	480.5
434.066	458.5
434.287	440.5
434.509	447.5
434.731	451.5
434.953	487.5
435.175	480.5
435.397	522.5
435.618	499.5
435.84	558.5
436.062	674.5
436.284	718.5
436.505	617.5
436.727	540.5
436.949	498.5
437.17	463.5
437.392	484.5
437.614	494.5
437.835	541.5
438.057	647.5
438.278	736.5
438.5	702.5
438.721	791.5
438.943	734.5
439.165	600.5
439.386	536.5
439.608	564.5
439.829	526.5
440.05	569.5
440.272	639.5
440.493	596.5
440.715	536.5
440.936	483.5
441.158	482.5
441.379	452.5
441.6	508.5
441.822	533.5
442.043	582.5
442.264	655.5
442.486	728.5
442.707	592.5
442.928	543.5
443.149	520.5
443.371	569.5
443.592	618.5
443.813	698.5
444.034	792.5
444.255	630.5
444.476	544.5
444.698	499.5
444.919	501.5
445.14	642.5
445.361	590.5
445.582	538.5
445.803	634.5
446.024	757.5
446.245	732.5
446.466	668.5
446.687	580.5
446.908	527.5
447.129	516.5
447.35	484.5
447.571	480.5
447.792	476.5
448.013	472.5
448.234	490.5
448.455	566.5
448.675	666.5
448.896	773.5
449.117	674.5
449.338	648.5
449.559	724.5
449.779	824.5
450	666.5
450.221	553.5
450.442	518.5
450.662	484.5
450.883	489.5
451.104	499.5
451.324	495.5
451.545	468.5
451.766	462.5
451.986	430.5
452.207	431.5
452.428	431.5
452.648	451.5
452.869	435.5
453.089	456.5
453.31	484.5
453.53	436.5
453.751	419.5
453.971	410.5
454.192	456.5
454.412	462.5
454.633	447.5
454.853	445.5
455.073	427.5
455.294	460.5
455.514	525.5
455.734	540.5
455.955	421.5
456.175	402.5
456.395	383.5
456.616	406.5
456.836	406.5
457.056	389.5
457.276	391.5
457.497	413.5
457.717	401.5
457.937	412.5
458.157	401.5
458.377	398.5
458.598	441.5
458.818	521.5
459.038	581.5
459.258	608.5
459.478	497.5
459.698	471.5
459.918	438.5
460.138	423.5
460.358	440.5
460.578	437.5
460.798	435.5
461.018	430.5
461.238	436.5
461.458	434.5
461.678	419.5
461.898	443.5
462.118	424.5
462.338	461.5
462.558	426.5
462.777	462.5
462.997	461.5
463.217	484.5
463.437	475.5
463.657	442.5
463.876	456.5
464.096	428.5
464.316	461.5
464.536	467.5
464.755	477.5
464.975	490.5
465.195	509.5
465.414	616.5
465.634	532.5
465.854	475.5
466.073	467.5
466.293	452.5
466.512	453.5
466.732	436.5
466.951	423.5
467.171	415.5
467.391	437.5
467.61	448.5
467.829	446.5
468.049	447.5
468.268	450.5
468.488	450.5
468.707	415.5
468.927	393.5
469.146	429.5
469.365	431.5
469.585	427.5
469.804	430.5
470.023	446.5
470.243	429.5
470.462	442.5
470.681	456.5
470.901	457.5
471.12	430.5
471.339	430.5
471.558	420.5
471.777	475.5
471.997	451.5
472.216	455.5
472.435	500.5
472.654	499.5
472.873	434.5
473.092	450.5
473.311	459.5
473.53	428.5
473.749	439.5
473.968	492.5
474.187	609.5
474.406	630.5
474.625	474.5
474.844	459.5
475.063	458.5
475.282	445.5
475.501	429.5
475.72	466.5
475.939	447.5
476.158	451.5
476.377	460.5
476.596	457.5
476.814	448.5
477.033	483.5
477.252	463.5
477.471	479.5
477.69	478.5
477.908	460.5
478.127	479.5
478.346	458.5
478.564	469.5
478.783	466.5
479.002	494.5
479.22	500.5
479.439	510.5
479.658	527.5
479.876	546.5
480.095	528.5
480.313	573.5
480.532	520.5
480.751	538.5
480.969	547.5
481.188	638.5
481.406	676.5
481.624	568.5
481.843	537.5
482.061	526.5
482.28	530.5
482.498	528.5
482.717	505.5
482.935	523.5
483.153	503.5
483.372	508.5
483.59	528.5
483.808	517.5
484.027	525.5
484.245	536.5
484.463	526.5
484.681	516.5
484.9	504.5
485.118	520.5
485.336	524.5
485.554	523.5
485.772	535.5
485.99	524.5
486.209	535.5
486.427	535.5
486.645	563.5
486.863	569.5
487.081	590.5
487.299	550.5
487.517	556.5
487.735	535.5
487.953	566.5
488.171	571.5
488.389	552.5
488.607	534.5
488.825	558.5
489.043	562.5
489.261	601.5
489.479	596.5
489.696	571.5
489.914	565.5
490.132	599.5
490.35	584.5
490.568	590.5
490.786	579.5
491.003	580.5
491.221	633.5
491.439	636.5
491.657	622.5
491.874	652.5
492.092	653.5
492.31	641.5
492.527	654.5
492.745	638.5
492.963	684.5
493.18	662.5
493.398	663.5
493.615	664.5
493.833	661.5
494.05	674.5
494.268	653.5
494.485	660.5
494.703	671.5
494.92	674.5
495.138	656.5
495.355	662.5
495.573	682.5
495.79	674.5
496.008	648.5
496.225	651.5
496.442	680.5
496.66	671.5
496.877	687.5
497.094	657.5
497.312	675.5
497.529	697.5
497.746	682.5
497.963	693.5
498.181	715.5
498.398	696.5
498.615	703.5
498.832	716.5
499.049	728.5
499.267	715.5
499.484	762.5
499.701	765.5
499.918	763.5
500.135	805.5
500.352	837.5
500.569	864.5
500.786	846.5
501.003	852.5
501.22	843.5
501.437	821.5
501.654	809.5
501.871	812.5
502.088	773.5
502.305	751.5
502.522	738.5
502.739	708.5
502.956	702.5
503.172	714.5
503.389	694.5
503.606	675.5
503.823	689.5
504.04	677.5
504.256	674.5
504.473	644.5
504.69	672.5
504.907	654.5
505.123	639.5
505.34	631.5
505.557	632.5
505.773	639.5
505.99	645.5
506.207	653.5
506.423	633.5
506.64	659.5
506.856	644.5
507.073	623.5
507.289	622.5
507.506	624.5
507.722	627.5
507.939	662.5
508.155	622.5
508.372	612.5
508.588	622.5
508.805	612.5
509.021	636.5
509.238	626.5
509.454	628.5
509.67	610.5
509.887	623.5
510.103	618.5
510.319	634.5
510.536	760.5
510.752	1258.5
510.968	1005.5
511.184	654.5
511.401	595.5
511.617	588.5
511.833	586.5
512.049	580.5
512.265	562.5
512.481	574.5
512.698	583.5
512.914	574.5
513.13	574.5
513.346	577.5
513.562	574.5
513.778	588.5
513.994	563.5
514.21	610.5
514.426	637.5
514.642	687.5
514.858	708.5
515.074	751.5
515.29	914.5
515.506	1364.5
515.721	1096.5
515.937	728.5
516.153	655.5
516.369	644.5
516.585	620.5
516.801	600.5
517.016	603.5
517.232	583.5
517.448	568.5
517.664	577.5
517.879	572.5
518.095	569.5
518.311	588.5
518.527	568.5
518.742	576.5
518.958	591.5
519.173	575.5
519.389	592.5
519.605	554.5
519.82	562.5
