Data from 1989.PennyLincolnUp.Lamp.En5.5.200Scan.071819.P2_HRD10591_17-25-03-973.txt Node
Date: Thu Jul 18 17:25:03 EDT 2019
User: cochatt
Spectrometer: HR+D1059
Trigger mode: 1
Integration Time (sec): 1.000000E-1
Scans to average: 1
Electric dark correction enabled: true
Nonlinearity correction enabled: false
Boxcar width: 0
XAxis mode: Wavelengths
Number of Pixels in Spectrum: 2048
>>>>>Begin Spectral Data<<<<<
223.165	-20.81
223.4	-20.81
223.635	-20.81
223.869	-18.81
224.104	-9.81
224.338	-9.81
224.573	-17.81
224.808	-5.81
225.042	-4.81
225.277	7.19
225.511	-12.81
225.746	5.19
225.98	5.19
226.215	4.19
226.449	5.19
226.683	18.19
226.918	21.19
227.152	34.19
227.387	43.19
227.621	39.19
227.856	51.19
228.09	52.19
228.324	59.19
228.559	54.19
228.793	78.19
229.027	104.19
229.262	117.19
229.496	116.19
229.73	142.19
229.964	153.19
230.199	124.19
230.433	119.19
230.667	123.19
230.901	118.19
231.136	129.19
231.37	123.19
231.604	138.19
231.838	116.19
232.072	119.19
232.306	124.19
232.541	114.19
232.775	117.19
233.009	110.19
233.243	117.19
233.477	128.19
233.711	125.19
233.945	124.19
234.179	118.19
234.413	120.19
234.647	133.19
234.881	117.19
235.115	114.19
235.349	133.19
235.583	118.19
235.817	139.19
236.051	138.19
236.285	148.19
236.519	126.19
236.753	127.19
236.987	145.19
237.221	185.19
237.455	251.19
237.689	213.19
237.922	149.19
238.156	132.19
238.39	133.19
238.624	142.19
238.858	129.19
239.091	139.19
239.325	124.19
239.559	131.19
239.793	134.19
240.027	135.19
240.26	145.19
240.494	159.19
240.728	165.19
240.961	158.19
241.195	147.19
241.429	153.19
241.662	135.19
241.896	141.19
242.13	143.19
242.363	131.19
242.597	143.19
242.83	140.19
243.064	142.19
243.298	162.19
243.531	143.19
243.765	161.19
243.998	155.19
244.232	158.19
244.465	143.19
244.699	161.19
244.932	158.19
245.166	157.19
245.399	168.19
245.633	151.19
245.866	150.19
246.099	160.19
246.333	161.19
246.566	154.19
246.8	158.19
247.033	167.19
247.266	158.19
247.5	164.19
247.733	188.19
247.966	198.19
248.2	180.19
248.433	193.19
248.666	204.19
248.899	192.19
249.133	216.19
249.366	243.19
249.599	220.19
249.832	205.19
250.066	198.19
250.299	200.19
250.532	218.19
250.765	237.19
250.998	228.19
251.231	257.19
251.465	249.19
251.698	225.19
251.931	229.19
252.164	212.19
252.397	221.19
252.63	218.19
252.863	232.19
253.096	228.19
253.329	243.19
253.562	242.19
253.795	241.19
254.028	238.19
254.261	233.19
254.494	254.19
254.727	277.19
254.96	311.19
255.193	320.19
255.426	275.19
255.659	277.19
255.892	259.19
256.124	270.19
256.357	257.19
256.59	240.19
256.823	249.19
257.056	238.19
257.289	220.19
257.521	246.19
257.754	243.19
257.987	231.19
258.22	246.19
258.452	250.19
258.685	235.19
258.918	233.19
259.151	248.19
259.383	251.19
259.616	243.19
259.849	237.19
260.081	245.19
260.314	263.19
260.547	277.19
260.779	270.19
261.012	273.19
261.244	261.19
261.477	263.19
261.71	265.19
261.942	265.19
262.175	267.19
262.407	260.19
262.64	255.19
262.872	243.19
263.105	259.19
263.337	240.19
263.57	238.19
263.802	253.19
264.035	230.19
264.267	245.19
264.499	232.19
264.732	242.19
264.964	231.19
265.197	238.19
265.429	225.19
265.661	245.19
265.894	233.19
266.126	245.19
266.358	244.19
266.591	238.19
266.823	256.19
267.055	248.19
267.287	261.19
267.52	252.19
267.752	245.19
267.984	253.19
268.216	251.19
268.448	246.19
268.681	256.19
268.913	282.19
269.145	305.19
269.377	326.19
269.609	294.19
269.841	294.19
270.073	296.19
270.306	305.19
270.538	353.19
270.77	360.19
271.002	345.19
271.234	318.19
271.466	340.19
271.698	345.19
271.93	357.19
272.162	361.19
272.394	354.19
272.626	350.19
272.858	345.19
273.09	322.19
273.322	310.19
273.553	281.19
273.785	309.19
274.017	305.19
274.249	308.19
274.481	311.19
274.713	291.19
274.945	290.19
275.176	293.19
275.408	273.19
275.64	295.19
275.872	312.19
276.104	290.19
276.335	300.19
276.567	297.19
276.799	303.19
277.031	344.19
277.262	338.19
277.494	352.19
277.726	339.19
277.957	344.19
278.189	332.19
278.421	303.19
278.652	308.19
278.884	282.19
279.115	303.19
279.347	295.19
279.579	277.19
279.81	294.19
280.042	301.19
280.273	300.19
280.505	293.19
280.736	303.19
280.968	287.19
281.199	308.19
281.431	277.19
281.662	295.19
281.894	297.19
282.125	295.19
282.356	318.19
282.588	363.19
282.819	345.19
283.051	325.19
283.282	283.19
283.513	314.19
283.745	300.19
283.976	293.19
284.207	325.19
284.439	307.19
284.67	301.19
284.901	307.19
285.132	306.19
285.364	287.19
285.595	320.19
285.826	292.19
286.057	301.19
286.288	302.19
286.52	301.19
286.751	329.19
286.982	308.19
287.213	290.19
287.444	296.19
287.675	314.19
287.906	332.19
288.138	326.19
288.369	345.19
288.6	330.19
288.831	326.19
289.062	332.19
289.293	315.19
289.524	323.19
289.755	316.19
289.986	318.19
290.217	314.19
290.448	323.19
290.679	309.19
290.91	301.19
291.141	306.19
291.371	309.19
291.602	321.19
291.833	316.19
292.064	301.19
292.295	318.19
292.526	328.19
292.757	315.19
292.987	322.19
293.218	320.19
293.449	303.19
293.68	314.19
293.91	305.19
294.141	327.19
294.372	309.19
294.603	335.19
294.833	314.19
295.064	322.19
295.295	346.19
295.525	316.19
295.756	346.19
295.987	332.19
296.217	361.19
296.448	383.19
296.679	335.19
296.909	341.19
297.14	330.19
297.37	319.19
297.601	325.19
297.831	328.19
298.062	351.19
298.292	322.19
298.523	334.19
298.753	353.19
298.984	315.19
299.214	327.19
299.445	338.19
299.675	347.19
299.905	345.19
300.136	346.19
300.366	339.19
300.597	323.19
300.827	351.19
301.057	352.19
301.288	351.19
301.518	359.19
301.748	352.19
301.979	361.19
302.209	361.19
302.439	355.19
302.669	337.19
302.9	355.19
303.13	363.19
303.36	365.19
303.59	380.19
303.82	357.19
304.051	377.19
304.281	367.19
304.511	356.19
304.741	356.19
304.971	362.19
305.201	364.19
305.431	343.19
305.661	349.19
305.891	344.19
306.121	372.19
306.352	362.19
306.582	363.19
306.812	350.19
307.042	362.19
307.272	379.19
307.502	372.19
307.731	370.19
307.961	371.19
308.191	364.19
308.421	355.19
308.651	364.19
308.881	362.19
309.111	377.19
309.341	383.19
309.571	390.19
309.8	401.19
310.03	396.19
310.26	407.19
310.49	404.19
310.72	419.19
310.949	423.19
311.179	426.19
311.409	409.19
311.639	415.19
311.868	432.19
312.098	407.19
312.328	440.19
312.557	442.19
312.787	448.19
313.017	450.19
313.246	420.19
313.476	418.19
313.706	398.19
313.935	414.19
314.165	433.19
314.394	446.19
314.624	429.19
314.853	419.19
315.083	405.19
315.312	419.19
315.542	407.19
315.771	413.19
316.001	389.19
316.23	418.19
316.46	406.19
316.689	413.19
316.919	415.19
317.148	406.19
317.377	431.19
317.607	430.19
317.836	438.19
318.065	412.19
318.295	423.19
318.524	393.19
318.753	391.19
318.983	406.19
319.212	426.19
319.441	430.19
319.67	412.19
319.9	423.19
320.129	414.19
320.358	426.19
320.587	423.19
320.816	425.19
321.046	436.19
321.275	428.19
321.504	437.19
321.733	449.19
321.962	438.19
322.191	452.19
322.42	475.19
322.649	499.19
322.878	516.19
323.108	534.19
323.337	539.19
323.566	549.19
323.795	605.19
324.024	673.19
324.253	814.19
324.482	1185.19
324.71	1779.19
324.939	2625.19
325.168	2253.19
325.397	1135.19
325.626	779.19
325.855	665.19
326.084	589.19
326.313	581.19
326.542	562.19
326.77	613.19
326.999	741.19
327.228	1063.19
327.457	1586.19
327.686	1924.19
327.914	1333.19
328.143	846.19
328.372	703.19
328.6	658.19
328.829	637.19
329.058	631.19
329.287	650.19
329.515	598.19
329.744	582.19
329.972	550.19
330.201	565.19
330.43	620.19
330.658	666.19
330.887	701.19
331.115	668.19
331.344	590.19
331.572	552.19
331.801	541.19
332.03	555.19
332.258	498.19
332.486	496.19
332.715	484.19
332.943	492.19
333.172	494.19
333.4	486.19
333.629	483.19
333.857	500.19
334.085	547.19
334.314	517.19
334.542	562.19
334.771	558.19
334.999	520.19
335.227	491.19
335.455	492.19
335.684	492.19
335.912	474.19
336.14	465.19
336.369	468.19
336.597	490.19
336.825	480.19
337.053	463.19
337.281	463.19
337.51	483.19
337.738	472.19
337.966	470.19
338.194	456.19
338.422	493.19
338.65	469.19
338.878	456.19
339.106	463.19
339.334	443.19
339.562	459.19
339.79	452.19
340.018	462.19
340.246	443.19
340.474	452.19
340.702	485.19
340.93	452.19
341.158	468.19
341.386	479.19
341.614	453.19
341.842	454.19
342.07	434.19
342.298	426.19
342.526	457.19
342.754	413.19
342.981	429.19
343.209	447.19
343.437	444.19
343.665	445.19
343.893	457.19
344.12	455.19
344.348	467.19
344.576	454.19
344.804	474.19
345.031	459.19
345.259	456.19
345.487	476.19
345.714	459.19
345.942	456.19
346.17	443.19
346.397	446.19
346.625	462.19
346.853	452.19
347.08	445.19
347.308	470.19
347.535	461.19
347.763	460.19
347.99	453.19
348.218	468.19
348.445	459.19
348.673	453.19
348.9	441.19
349.128	425.19
349.355	425.19
349.583	423.19
349.81	414.19
350.037	426.19
350.265	458.19
350.492	445.19
350.72	428.19
350.947	446.19
351.174	445.19
351.402	469.19
351.629	457.19
351.856	468.19
352.083	459.19
352.311	453.19
352.538	462.19
352.765	474.19
352.992	453.19
353.22	443.19
353.447	435.19
353.674	437.19
353.901	415.19
354.128	396.19
354.355	410.19
354.583	412.19
354.81	405.19
355.037	402.19
355.264	404.19
355.491	404.19
355.718	405.19
355.945	398.19
356.172	404.19
356.399	387.19
356.626	395.19
356.853	411.19
357.08	397.19
357.307	386.19
357.534	410.19
357.761	391.19
357.988	414.19
358.215	400.19
358.441	397.19
358.668	413.19
358.895	389.19
359.122	410.19
359.349	427.19
359.576	446.19
359.802	463.19
360.029	490.19
360.256	508.19
360.483	489.19
360.709	447.19
360.936	439.19
361.163	441.19
361.39	457.19
361.616	430.19
361.843	438.19
362.07	429.19
362.296	451.19
362.523	427.19
362.749	438.19
362.976	428.19
363.203	412.19
363.429	406.19
363.656	405.19
363.882	412.19
364.109	421.19
364.335	402.19
364.562	402.19
364.788	403.19
365.015	398.19
365.241	396.19
365.468	427.19
365.694	429.19
365.92	408.19
366.147	434.19
366.373	415.19
366.599	395.19
366.826	396.19
367.052	410.19
367.278	405.19
367.505	400.19
367.731	418.19
367.957	403.19
368.184	413.19
368.41	410.19
368.636	400.19
368.862	445.19
369.089	410.19
369.315	419.19
369.541	394.19
369.767	413.19
369.993	410.19
370.219	425.19
370.445	401.19
370.672	408.19
370.898	426.19
371.124	409.19
371.35	403.19
371.576	394.19
371.802	407.19
372.028	393.19
372.254	398.19
372.48	402.19
372.706	395.19
372.932	420.19
373.158	404.19
373.384	404.19
373.61	391.19
373.835	397.19
374.061	369.19
374.287	400.19
374.513	396.19
374.739	391.19
374.965	396.19
375.191	418.19
375.416	393.19
375.642	411.19
375.868	399.19
376.094	402.19
376.319	413.19
376.545	396.19
376.771	391.19
376.997	394.19
377.222	379.19
377.448	386.19
377.674	390.19
377.899	388.19
378.125	395.19
378.35	396.19
378.576	397.19
378.802	409.19
379.027	394.19
379.253	385.19
379.478	391.19
379.704	393.19
379.929	394.19
380.155	405.19
380.38	404.19
380.606	415.19
380.831	409.19
381.057	381.19
381.282	402.19
381.507	383.19
381.733	386.19
381.958	386.19
382.184	395.19
382.409	415.19
382.634	385.19
382.86	400.19
383.085	402.19
383.31	417.19
383.535	412.19
383.761	393.19
383.986	406.19
384.211	414.19
384.436	405.19
384.662	393.19
384.887	412.19
385.112	395.19
385.337	405.19
385.562	405.19
385.787	395.19
386.013	417.19
386.238	426.19
386.463	439.19
386.688	417.19
386.913	418.19
387.138	412.19
387.363	410.19
387.588	402.19
387.813	413.19
388.038	405.19
388.263	398.19
388.488	408.19
388.713	408.19
388.938	438.19
389.163	411.19
389.387	430.19
389.612	413.19
389.837	418.19
390.062	395.19
390.287	412.19
390.512	419.19
390.736	393.19
390.961	428.19
391.186	431.19
391.411	400.19
391.636	416.19
391.86	427.19
392.085	417.19
392.31	429.19
392.534	424.19
392.759	424.19
392.984	422.19
393.208	419.19
393.433	441.19
393.658	423.19
393.882	434.19
394.107	407.19
394.331	425.19
394.556	415.19
394.78	414.19
395.005	420.19
395.229	416.19
395.454	414.19
395.678	446.19
395.903	437.19
396.127	458.19
396.352	466.19
396.576	447.19
396.801	430.19
397.025	438.19
397.249	429.19
397.474	444.19
397.698	435.19
397.922	467.19
398.147	470.19
398.371	489.19
398.595	474.19
398.82	464.19
399.044	492.19
399.268	482.19
399.492	503.19
399.717	526.19
399.941	553.19
400.165	564.19
400.389	604.19
400.613	535.19
400.837	505.19
401.062	485.19
401.286	478.19
401.51	465.19
401.734	472.19
401.958	487.19
402.182	489.19
402.406	506.19
402.63	475.19
402.854	478.19
403.078	461.19
403.302	505.19
403.526	463.19
403.75	495.19
403.974	473.19
404.198	478.19
404.422	475.19
404.645	517.19
404.869	509.19
405.093	525.19
405.317	579.19
405.541	583.19
405.765	534.19
405.988	525.19
406.212	557.19
406.436	557.19
406.66	553.19
406.883	532.19
407.107	568.19
407.331	568.19
407.555	650.19
407.778	633.19
408.002	592.19
408.226	545.19
408.449	525.19
408.673	549.19
408.896	581.19
409.12	601.19
409.344	582.19
409.567	519.19
409.791	513.19
410.014	507.19
410.238	473.19
410.461	472.19
410.685	499.19
410.908	524.19
411.132	539.19
411.355	585.19
411.578	540.19
411.802	512.19
412.025	511.19
412.249	479.19
412.472	506.19
412.695	538.19
412.919	538.19
413.142	497.19
413.365	478.19
413.589	480.19
413.812	463.19
414.035	469.19
414.258	455.19
414.482	455.19
414.705	438.19
414.928	440.19
415.151	444.19
415.374	462.19
415.597	439.19
415.821	453.19
416.044	457.19
416.267	478.19
416.49	435.19
416.713	468.19
416.936	443.19
417.159	482.19
417.382	460.19
417.605	489.19
417.828	486.19
418.051	502.19
418.274	470.19
418.497	441.19
418.72	455.19
418.943	443.19
419.166	481.19
419.389	503.19
419.611	478.19
419.834	493.19
420.057	477.19
420.28	480.19
420.503	464.19
420.726	491.19
420.948	493.19
421.171	525.19
421.394	585.19
421.617	524.19
421.839	490.19
422.062	503.19
422.285	489.19
422.507	565.19
422.73	631.19
422.953	605.19
423.175	541.19
423.398	527.19
423.621	495.19
423.843	513.19
424.066	535.19
424.288	538.19
424.511	568.19
424.733	597.19
424.956	683.19
425.178	671.19
425.401	652.19
425.623	653.19
425.846	569.19
426.068	528.19
426.291	527.19
426.513	551.19
426.735	572.19
426.958	577.19
427.18	677.19
427.402	808.19
427.625	882.19
427.847	785.19
428.069	662.19
428.292	586.19
428.514	535.19
428.736	517.19
428.958	510.19
429.181	517.19
429.403	475.19
429.625	498.19
429.847	547.19
430.069	629.19
430.292	598.19
430.514	520.19
430.736	487.19
430.958	476.19
431.18	478.19
431.402	470.19
431.624	441.19
431.846	447.19
432.068	464.19
432.29	471.19
432.512	466.19
432.734	473.19
432.956	450.19
433.178	467.19
433.4	482.19
433.622	472.19
433.844	461.19
434.066	453.19
434.287	453.19
434.509	443.19
434.731	446.19
434.953	454.19
435.175	485.19
435.397	500.19
435.618	508.19
435.84	584.19
436.062	693.19
436.284	748.19
436.505	590.19
436.727	551.19
436.949	529.19
437.17	487.19
437.392	503.19
437.614	517.19
437.835	553.19
438.057	653.19
438.278	760.19
438.5	741.19
438.721	821.19
438.943	749.19
439.165	617.19
439.386	569.19
439.608	527.19
439.829	559.19
440.05	564.19
440.272	631.19
440.493	580.19
440.715	542.19
440.936	504.19
441.158	490.19
441.379	503.19
441.6	523.19
441.822	542.19
442.043	577.19
442.264	663.19
442.486	701.19
442.707	621.19
442.928	554.19
443.149	527.19
443.371	569.19
443.592	612.19
443.813	718.19
444.034	783.19
444.255	629.19
444.476	533.19
444.698	557.19
444.919	545.19
445.14	606.19
445.361	578.19
445.582	596.19
445.803	653.19
446.024	747.19
446.245	774.19
446.466	679.19
446.687	584.19
446.908	533.19
447.129	513.19
447.35	502.19
447.571	494.19
447.792	489.19
448.013	499.19
448.234	505.19
448.455	551.19
448.675	712.19
448.896	805.19
449.117	665.19
449.338	607.19
449.559	740.19
449.779	861.19
450	693.19
450.221	573.19
450.442	531.19
450.662	497.19
450.883	486.19
451.104	506.19
451.324	497.19
451.545	468.19
451.766	441.19
451.986	427.19
452.207	454.19
452.428	424.19
452.648	449.19
452.869	459.19
453.089	466.19
453.31	463.19
453.53	439.19
453.751	444.19
453.971	458.19
454.192	473.19
454.412	463.19
454.633	452.19
454.853	424.19
455.073	443.19
455.294	449.19
455.514	525.19
455.734	527.19
455.955	441.19
456.175	431.19
456.395	401.19
456.616	409.19
456.836	405.19
457.056	403.19
457.276	405.19
457.497	407.19
457.717	421.19
457.937	421.19
458.157	429.19
458.377	431.19
458.598	448.19
458.818	513.19
459.038	598.19
459.258	620.19
459.478	510.19
459.698	471.19
459.918	442.19
460.138	448.19
460.358	458.19
460.578	471.19
460.798	447.19
461.018	453.19
461.238	465.19
461.458	439.19
461.678	449.19
461.898	444.19
462.118	462.19
462.338	461.19
462.558	461.19
462.777	461.19
462.997	476.19
463.217	467.19
463.437	485.19
463.657	479.19
463.876	485.19
464.096	475.19
464.316	479.19
464.536	492.19
464.755	499.19
464.975	489.19
465.195	569.19
465.414	617.19
465.634	570.19
465.854	510.19
466.073	510.19
466.293	455.19
466.512	434.19
466.732	431.19
466.951	439.19
467.171	440.19
467.391	459.19
467.61	451.19
467.829	465.19
468.049	449.19
468.268	444.19
468.488	437.19
468.707	433.19
468.927	442.19
469.146	421.19
469.365	422.19
469.585	423.19
469.804	440.19
470.023	447.19
470.243	480.19
470.462	460.19
470.681	478.19
470.901	464.19
471.12	457.19
471.339	447.19
471.558	439.19
471.777	449.19
471.997	438.19
472.216	451.19
472.435	460.19
472.654	463.19
472.873	441.19
473.092	437.19
473.311	424.19
473.53	453.19
473.749	449.19
473.968	502.19
474.187	610.19
474.406	603.19
474.625	514.19
474.844	480.19
475.063	471.19
475.282	448.19
475.501	441.19
475.72	481.19
475.939	454.19
476.158	458.19
476.377	469.19
476.596	454.19
476.814	448.19
477.033	474.19
477.252	481.19
477.471	482.19
477.69	491.19
477.908	497.19
478.127	473.19
478.346	502.19
478.564	473.19
478.783	507.19
479.002	504.19
479.22	516.19
479.439	532.19
479.658	549.19
479.876	527.19
480.095	541.19
480.313	566.19
480.532	566.19
480.751	548.19
480.969	542.19
481.188	586.19
481.406	628.19
481.624	567.19
481.843	550.19
482.061	539.19
482.28	540.19
482.498	524.19
482.717	534.19
482.935	527.19
483.153	537.19
483.372	533.19
483.59	521.19
483.808	515.19
484.027	531.19
484.245	539.19
484.463	523.19
484.681	514.19
484.9	525.19
485.118	534.19
485.336	540.19
485.554	550.19
485.772	555.19
485.99	554.19
486.209	563.19
486.427	578.19
486.645	572.19
486.863	589.19
487.081	608.19
487.299	574.19
487.517	573.19
487.735	569.19
487.953	545.19
488.171	567.19
488.389	578.19
488.607	563.19
488.825	557.19
489.043	582.19
489.261	581.19
489.479	570.19
489.696	577.19
489.914	591.19
490.132	587.19
490.35	590.19
490.568	585.19
490.786	573.19
491.003	604.19
491.221	626.19
491.439	638.19
491.657	638.19
491.874	650.19
492.092	668.19
492.31	659.19
492.527	640.19
492.745	640.19
492.963	665.19
493.18	655.19
493.398	655.19
493.615	674.19
493.833	661.19
494.05	668.19
494.268	665.19
494.485	676.19
494.703	683.19
494.92	677.19
495.138	663.19
495.355	676.19
495.573	712.19
495.79	692.19
496.008	685.19
496.225	655.19
496.442	668.19
496.66	678.19
496.877	671.19
497.094	704.19
497.312	662.19
497.529	709.19
497.746	711.19
497.963	695.19
498.181	723.19
498.398	738.19
498.615	739.19
498.832	734.19
499.049	718.19
499.267	755.19
499.484	776.19
499.701	792.19
499.918	829.19
500.135	845.19
500.352	847.19
500.569	859.19
500.786	897.19
501.003	891.19
501.22	850.19
501.437	814.19
501.654	809.19
501.871	824.19
