Data from 1989.PennyLincolnUp.Lamp.En5.5.200Scan.071819.P2_HRD10591_17-23-43-973.txt Node
Date: Thu Jul 18 17:23:43 EDT 2019
User: cochatt
Spectrometer: HR+D1059
Trigger mode: 1
Integration Time (sec): 1.000000E-1
Scans to average: 1
Electric dark correction enabled: true
Nonlinearity correction enabled: false
Boxcar width: 0
XAxis mode: Wavelengths
Number of Pixels in Spectrum: 2048
>>>>>Begin Spectral Data<<<<<
223.165	-12.12
223.4	-12.12
223.635	-12.12
223.869	-17.12
224.104	-10.12
224.338	-13.12
224.573	-4.12
224.808	-23.12
225.042	-18.12
225.277	-4.12
225.511	-8.12
225.746	2.88
225.98	6.88
226.215	10.88
226.449	13.88
226.683	12.88
226.918	31.88
227.152	30.88
227.387	34.88
227.621	26.88
227.856	43.88
228.09	33.88
228.324	43.88
228.559	53.88
228.793	54.88
229.027	87.88
229.262	108.88
229.496	108.88
229.73	133.88
229.964	158.88
230.199	137.88
230.433	115.88
230.667	111.88
230.901	101.88
231.136	113.88
231.37	108.88
231.604	107.88
231.838	118.88
232.072	114.88
232.306	117.88
232.541	109.88
232.775	107.88
233.009	109.88
233.243	111.88
233.477	105.88
233.711	121.88
233.945	100.88
234.179	111.88
234.413	120.88
234.647	129.88
234.881	116.88
235.115	121.88
235.349	121.88
235.583	120.88
235.817	120.88
236.051	148.88
236.285	117.88
236.519	111.88
236.753	128.88
236.987	143.88
237.221	171.88
237.455	226.88
237.689	197.88
237.922	142.88
238.156	132.88
238.39	119.88
238.624	121.88
238.858	122.88
239.091	128.88
239.325	132.88
239.559	138.88
239.793	121.88
240.027	144.88
240.26	141.88
240.494	150.88
240.728	151.88
240.961	150.88
241.195	141.88
241.429	151.88
241.662	125.88
241.896	127.88
242.13	132.88
242.363	120.88
242.597	134.88
242.83	132.88
243.064	141.88
243.298	140.88
243.531	153.88
243.765	117.88
243.998	140.88
244.232	145.88
244.465	147.88
244.699	163.88
244.932	147.88
245.166	146.88
245.399	141.88
245.633	147.88
245.866	142.88
246.099	154.88
246.333	140.88
246.566	134.88
246.8	154.88
247.033	157.88
247.266	151.88
247.5	169.88
247.733	160.88
247.966	176.88
248.2	165.88
248.433	175.88
248.666	154.88
248.899	171.88
249.133	188.88
249.366	207.88
249.599	207.88
249.832	185.88
250.066	199.88
250.299	201.88
250.532	194.88
250.765	206.88
250.998	208.88
251.231	235.88
251.465	223.88
251.698	212.88
251.931	206.88
252.164	213.88
252.397	200.88
252.63	195.88
252.863	210.88
253.096	218.88
253.329	230.88
253.562	228.88
253.795	213.88
254.028	233.88
254.261	219.88
254.494	230.88
254.727	240.88
254.96	272.88
255.193	266.88
255.426	250.88
255.659	237.88
255.892	235.88
256.124	228.88
256.357	219.88
256.59	229.88
256.823	236.88
257.056	212.88
257.289	223.88
257.521	218.88
257.754	209.88
257.987	218.88
258.22	221.88
258.452	201.88
258.685	206.88
258.918	220.88
259.151	227.88
259.383	215.88
259.616	219.88
259.849	231.88
260.081	235.88
260.314	263.88
260.547	261.88
260.779	231.88
261.012	248.88
261.244	245.88
261.477	239.88
261.71	232.88
261.942	248.88
262.175	232.88
262.407	258.88
262.64	203.88
262.872	224.88
263.105	216.88
263.337	226.88
263.57	209.88
263.802	232.88
264.035	213.88
264.267	214.88
264.499	203.88
264.732	211.88
264.964	207.88
265.197	223.88
265.429	216.88
265.661	193.88
265.894	227.88
266.126	221.88
266.358	220.88
266.591	195.88
266.823	232.88
267.055	243.88
267.287	237.88
267.52	229.88
267.752	248.88
267.984	235.88
268.216	248.88
268.448	254.88
268.681	230.88
268.913	257.88
269.145	281.88
269.377	308.88
269.609	266.88
269.841	288.88
270.073	290.88
270.306	294.88
270.538	299.88
270.77	313.88
271.002	320.88
271.234	289.88
271.466	291.88
271.698	320.88
271.93	337.88
272.162	321.88
272.394	333.88
272.626	297.88
272.858	297.88
273.09	300.88
273.322	279.88
273.553	259.88
273.785	259.88
274.017	270.88
274.249	265.88
274.481	283.88
274.713	285.88
274.945	274.88
275.176	272.88
275.408	251.88
275.64	273.88
275.872	267.88
276.104	276.88
276.335	277.88
276.567	292.88
276.799	278.88
277.031	320.88
277.262	299.88
277.494	330.88
277.726	300.88
277.957	288.88
278.189	289.88
278.421	290.88
278.652	288.88
278.884	290.88
279.115	253.88
279.347	276.88
279.579	273.88
279.81	270.88
280.042	269.88
280.273	271.88
280.505	275.88
280.736	272.88
280.968	264.88
281.199	281.88
281.431	277.88
281.662	264.88
281.894	270.88
282.125	294.88
282.356	278.88
282.588	309.88
282.819	319.88
283.051	256.88
283.282	265.88
283.513	290.88
283.745	303.88
283.976	271.88
284.207	280.88
284.439	301.88
284.67	277.88
284.901	268.88
285.132	299.88
285.364	277.88
285.595	278.88
285.826	271.88
286.057	283.88
286.288	279.88
286.52	263.88
286.751	272.88
286.982	271.88
287.213	284.88
287.444	291.88
287.675	277.88
287.906	279.88
288.138	295.88
288.369	287.88
288.6	300.88
288.831	306.88
289.062	300.88
289.293	287.88
289.524	301.88
289.755	293.88
289.986	308.88
290.217	286.88
290.448	294.88
290.679	291.88
290.91	308.88
291.141	282.88
291.371	289.88
291.602	285.88
291.833	277.88
292.064	290.88
292.295	289.88
292.526	297.88
292.757	277.88
292.987	286.88
293.218	303.88
293.449	311.88
293.68	284.88
293.91	284.88
294.141	288.88
294.372	308.88
294.603	295.88
294.833	311.88
295.064	281.88
295.295	288.88
295.525	314.88
295.756	297.88
295.987	320.88
296.217	347.88
296.448	317.88
296.679	314.88
296.909	299.88
297.14	310.88
297.37	307.88
297.601	319.88
297.831	312.88
298.062	305.88
298.292	300.88
298.523	292.88
298.753	300.88
298.984	316.88
299.214	295.88
299.445	297.88
299.675	292.88
299.905	315.88
300.136	299.88
300.366	297.88
300.597	294.88
300.827	308.88
301.057	328.88
301.288	340.88
301.518	322.88
301.748	304.88
301.979	298.88
302.209	297.88
302.439	336.88
302.669	321.88
302.9	345.88
303.13	319.88
303.36	340.88
303.59	343.88
303.82	333.88
304.051	349.88
304.281	318.88
304.511	325.88
304.741	322.88
304.971	326.88
305.201	344.88
305.431	314.88
305.661	329.88
305.891	333.88
306.121	336.88
306.352	347.88
306.582	336.88
306.812	349.88
307.042	351.88
307.272	327.88
307.502	328.88
307.731	348.88
307.961	340.88
308.191	304.88
308.421	342.88
308.651	349.88
308.881	333.88
309.111	326.88
309.341	339.88
309.571	353.88
309.8	362.88
310.03	379.88
310.26	375.88
310.49	388.88
310.72	397.88
310.949	397.88
311.179	374.88
311.409	379.88
311.639	384.88
311.868	371.88
312.098	403.88
312.328	396.88
312.557	410.88
312.787	407.88
313.017	395.88
313.246	392.88
313.476	384.88
313.706	365.88
313.935	379.88
314.165	403.88
314.394	397.88
314.624	395.88
314.853	387.88
315.083	376.88
315.312	383.88
315.542	377.88
315.771	364.88
316.001	377.88
316.23	364.88
316.46	363.88
316.689	373.88
316.919	391.88
317.148	389.88
317.377	372.88
317.607	383.88
317.836	391.88
318.065	369.88
318.295	364.88
318.524	391.88
318.753	371.88
318.983	379.88
319.212	394.88
319.441	347.88
319.67	397.88
319.9	411.88
320.129	390.88
320.358	383.88
320.587	395.88
320.816	372.88
321.046	396.88
321.275	397.88
321.504	380.88
321.733	392.88
321.962	422.88
322.191	418.88
322.42	435.88
322.649	423.88
322.878	459.88
323.108	467.88
323.337	483.88
323.566	520.88
323.795	531.88
324.024	586.88
324.253	718.88
324.482	999.88
324.71	1504.88
324.939	2185.88
325.168	1925.88
325.397	977.88
325.626	677.88
325.855	550.88
326.084	531.88
326.313	512.88
326.542	519.88
326.77	566.88
326.999	656.88
327.228	875.88
327.457	1321.88
327.686	1610.88
327.914	1099.88
328.143	714.88
328.372	613.88
328.6	571.88
328.829	565.88
329.058	608.88
329.287	575.88
329.515	536.88
329.744	508.88
329.972	486.88
330.201	511.88
330.43	529.88
330.658	544.88
330.887	609.88
331.115	565.88
331.344	504.88
331.572	499.88
331.801	495.88
332.03	511.88
332.258	458.88
332.486	441.88
332.715	454.88
332.943	451.88
333.172	451.88
333.4	436.88
333.629	439.88
333.857	467.88
334.085	431.88
334.314	439.88
334.542	438.88
334.771	442.88
334.999	432.88
335.227	466.88
335.455	456.88
335.684	444.88
335.912	437.88
336.14	428.88
336.369	421.88
336.597	424.88
336.825	431.88
337.053	432.88
337.281	421.88
337.51	412.88
337.738	406.88
337.966	445.88
338.194	426.88
338.422	442.88
338.65	419.88
338.878	427.88
339.106	402.88
339.334	406.88
339.562	390.88
339.79	402.88
340.018	412.88
340.246	424.88
340.474	427.88
340.702	430.88
340.93	417.88
341.158	410.88
341.386	432.88
341.614	435.88
341.842	425.88
342.07	430.88
342.298	411.88
342.526	423.88
342.754	404.88
342.981	390.88
343.209	385.88
343.437	407.88
343.665	402.88
343.893	407.88
344.12	424.88
344.348	424.88
344.576	419.88
344.804	440.88
345.031	444.88
345.259	437.88
345.487	437.88
345.714	428.88
345.942	395.88
346.17	407.88
346.397	409.88
346.625	401.88
346.853	391.88
347.08	407.88
347.308	393.88
347.535	421.88
347.763	402.88
347.99	435.88
348.218	411.88
348.445	420.88
348.673	422.88
348.9	394.88
349.128	401.88
349.355	391.88
349.583	399.88
349.81	385.88
350.037	405.88
350.265	412.88
350.492	402.88
350.72	394.88
350.947	393.88
351.174	416.88
351.402	409.88
351.629	424.88
351.856	408.88
352.083	425.88
352.311	425.88
352.538	412.88
352.765	420.88
352.992	401.88
353.22	419.88
353.447	383.88
353.674	372.88
353.901	379.88
354.128	393.88
354.355	373.88
354.583	365.88
354.81	377.88
355.037	379.88
355.264	372.88
355.491	357.88
355.718	370.88
355.945	369.88
356.172	361.88
356.399	377.88
356.626	378.88
356.853	384.88
357.08	379.88
357.307	371.88
357.534	379.88
357.761	389.88
357.988	365.88
358.215	386.88
358.441	380.88
358.668	369.88
358.895	380.88
359.122	375.88
359.349	389.88
359.576	425.88
359.802	414.88
360.029	441.88
360.256	456.88
360.483	426.88
360.709	397.88
360.936	405.88
361.163	394.88
361.39	395.88
361.616	408.88
361.843	394.88
362.07	381.88
362.296	388.88
362.523	389.88
362.749	404.88
362.976	389.88
363.203	387.88
363.429	372.88
363.656	378.88
363.882	377.88
364.109	391.88
364.335	368.88
364.562	384.88
364.788	383.88
365.015	386.88
365.241	369.88
365.468	393.88
365.694	380.88
365.92	380.88
366.147	365.88
366.373	378.88
366.599	383.88
366.826	376.88
367.052	379.88
367.278	365.88
367.505	360.88
367.731	374.88
367.957	376.88
368.184	369.88
368.41	359.88
368.636	397.88
368.862	364.88
369.089	385.88
369.315	399.88
369.541	382.88
369.767	385.88
369.993	380.88
370.219	368.88
370.445	368.88
370.672	380.88
370.898	362.88
371.124	361.88
371.35	384.88
371.576	401.88
371.802	369.88
372.028	375.88
372.254	379.88
372.48	367.88
372.706	363.88
372.932	354.88
373.158	373.88
373.384	380.88
373.61	379.88
373.835	367.88
374.061	378.88
374.287	379.88
374.513	386.88
374.739	385.88
374.965	392.88
375.191	377.88
375.416	401.88
375.642	379.88
375.868	381.88
376.094	392.88
376.319	352.88
376.545	347.88
376.771	367.88
376.997	367.88
377.222	363.88
377.448	381.88
377.674	358.88
377.899	359.88
378.125	375.88
378.35	378.88
378.576	364.88
378.802	357.88
379.027	372.88
379.253	359.88
379.478	367.88
379.704	361.88
379.929	367.88
380.155	369.88
380.38	358.88
380.606	375.88
380.831	387.88
381.057	358.88
381.282	377.88
381.507	360.88
381.733	366.88
381.958	375.88
382.184	391.88
382.409	361.88
382.634	373.88
382.86	369.88
383.085	387.88
383.31	387.88
383.535	384.88
383.761	384.88
383.986	387.88
384.211	386.88
384.436	375.88
384.662	367.88
384.887	389.88
385.112	381.88
385.337	389.88
385.562	393.88
385.787	389.88
386.013	393.88
386.238	412.88
386.463	413.88
386.688	406.88
386.913	392.88
387.138	406.88
387.363	389.88
387.588	388.88
387.813	379.88
388.038	393.88
388.263	370.88
388.488	383.88
388.713	404.88
388.938	410.88
389.163	396.88
389.387	380.88
389.612	388.88
389.837	385.88
390.062	397.88
390.287	396.88
390.512	396.88
390.736	390.88
390.961	399.88
391.186	412.88
391.411	387.88
391.636	401.88
391.86	394.88
392.085	394.88
392.31	397.88
392.534	370.88
392.759	408.88
392.984	416.88
393.208	391.88
393.433	383.88
393.658	375.88
393.882	385.88
394.107	386.88
394.331	396.88
394.556	401.88
394.78	402.88
395.005	377.88
395.229	374.88
395.454	399.88
395.678	407.88
395.903	423.88
396.127	428.88
396.352	448.88
396.576	401.88
396.801	395.88
397.025	404.88
397.249	404.88
397.474	408.88
397.698	406.88
397.922	404.88
398.147	442.88
398.371	431.88
398.595	428.88
398.82	440.88
399.044	433.88
399.268	434.88
399.492	467.88
399.717	518.88
399.941	525.88
400.165	539.88
400.389	577.88
400.613	514.88
400.837	466.88
401.062	435.88
401.286	464.88
401.51	458.88
401.734	441.88
401.958	438.88
402.182	438.88
402.406	467.88
402.63	458.88
402.854	469.88
403.078	438.88
403.302	441.88
403.526	458.88
403.75	462.88
403.974	438.88
404.198	449.88
404.422	455.88
404.645	447.88
404.869	447.88
405.093	496.88
405.317	467.88
405.541	512.88
405.765	474.88
405.988	450.88
406.212	465.88
406.436	511.88
406.66	519.88
406.883	502.88
407.107	500.88
407.331	538.88
407.555	596.88
407.778	615.88
408.002	565.88
408.226	529.88
408.449	504.88
408.673	489.88
408.896	548.88
409.12	571.88
409.344	543.88
409.567	484.88
409.791	475.88
410.014	443.88
410.238	428.88
410.461	437.88
410.685	476.88
410.908	477.88
411.132	474.88
411.355	525.88
411.578	501.88
411.802	467.88
412.025	455.88
412.249	441.88
412.472	453.88
412.695	435.88
412.919	451.88
413.142	448.88
413.365	443.88
413.589	438.88
413.812	427.88
414.035	432.88
414.258	407.88
414.482	429.88
414.705	455.88
414.928	437.88
415.151	424.88
415.374	416.88
415.597	434.88
415.821	423.88
416.044	409.88
416.267	434.88
416.49	438.88
416.713	418.88
416.936	427.88
417.159	446.88
417.382	431.88
417.605	429.88
417.828	441.88
418.051	461.88
418.274	448.88
418.497	416.88
418.72	418.88
418.943	424.88
419.166	442.88
419.389	455.88
419.611	474.88
419.834	436.88
420.057	448.88
420.28	437.88
420.503	425.88
420.726	437.88
420.948	455.88
421.171	510.88
421.394	528.88
421.617	471.88
421.839	459.88
422.062	455.88
422.285	463.88
422.507	533.88
422.73	601.88
422.953	567.88
423.175	512.88
423.398	473.88
423.621	460.88
423.843	475.88
424.066	491.88
424.288	459.88
424.511	505.88
424.733	571.88
424.956	615.88
425.178	604.88
425.401	615.88
425.623	647.88
425.846	546.88
426.068	511.88
426.291	496.88
426.513	506.88
426.735	515.88
426.958	561.88
427.18	634.88
427.402	741.88
427.625	812.88
427.847	706.88
428.069	602.88
428.292	522.88
428.514	475.88
428.736	478.88
428.958	503.88
429.181	452.88
429.403	459.88
429.625	461.88
429.847	511.88
430.069	565.88
430.292	560.88
430.514	483.88
430.736	470.88
430.958	444.88
431.18	428.88
431.402	428.88
431.624	423.88
431.846	431.88
432.068	421.88
432.29	423.88
432.512	412.88
432.734	461.88
432.956	439.88
433.178	451.88
433.4	445.88
433.622	441.88
433.844	423.88
434.066	420.88
434.287	428.88
434.509	427.88
434.731	443.88
434.953	437.88
435.175	479.88
435.397	469.88
435.618	499.88
435.84	545.88
436.062	664.88
436.284	688.88
436.505	568.88
436.727	511.88
436.949	487.88
437.17	442.88
437.392	451.88
437.614	475.88
437.835	531.88
438.057	576.88
438.278	687.88
438.5	663.88
438.721	746.88
438.943	721.88
439.165	568.88
439.386	510.88
439.608	509.88
439.829	508.88
440.05	563.88
440.272	585.88
440.493	572.88
440.715	500.88
440.936	457.88
441.158	450.88
441.379	454.88
441.6	468.88
441.822	484.88
442.043	523.88
442.264	599.88
442.486	629.88
442.707	537.88
442.928	517.88
443.149	500.88
443.371	507.88
443.592	567.88
443.813	656.88
444.034	731.88
444.255	583.88
444.476	524.88
444.698	491.88
444.919	497.88
445.14	578.88
445.361	543.88
445.582	544.88
445.803	597.88
446.024	701.88
446.245	708.88
446.466	645.88
446.687	562.88
446.908	501.88
447.129	490.88
447.35	480.88
447.571	459.88
447.792	456.88
448.013	463.88
448.234	488.88
448.455	518.88
448.675	643.88
448.896	733.88
449.117	628.88
449.338	591.88
449.559	677.88
449.779	793.88
450	611.88
450.221	506.88
450.442	469.88
450.662	470.88
450.883	440.88
451.104	479.88
451.324	445.88
451.545	431.88
451.766	419.88
451.986	406.88
452.207	392.88
452.428	396.88
452.648	409.88
452.869	433.88
453.089	425.88
453.31	417.88
453.53	410.88
453.751	409.88
453.971	409.88
454.192	412.88
454.412	407.88
454.633	379.88
454.853	381.88
455.073	392.88
455.294	440.88
455.514	496.88
455.734	463.88
455.955	419.88
456.175	393.88
456.395	374.88
456.616	369.88
456.836	362.88
457.056	385.88
457.276	373.88
457.497	371.88
457.717	368.88
457.937	415.88
458.157	405.88
458.377	392.88
458.598	407.88
458.818	467.88
459.038	538.88
459.258	575.88
459.478	465.88
459.698	448.88
459.918	418.88
460.138	431.88
460.358	416.88
460.578	421.88
460.798	426.88
461.018	437.88
461.238	427.88
461.458	435.88
461.678	417.88
461.898	419.88
462.118	405.88
462.338	426.88
462.558	445.88
462.777	435.88
462.997	460.88
463.217	463.88
463.437	452.88
463.657	455.88
463.876	441.88
464.096	442.88
464.316	436.88
464.536	441.88
464.755	427.88
464.975	455.88
465.195	507.88
465.414	570.88
465.634	504.88
465.854	436.88
466.073	438.88
466.293	421.88
466.512	410.88
466.732	413.88
466.951	434.88
467.171	400.88
467.391	419.88
467.61	429.88
467.829	419.88
468.049	407.88
468.268	416.88
468.488	410.88
468.707	386.88
468.927	397.88
469.146	404.88
469.365	414.88
469.585	395.88
469.804	400.88
470.023	424.88
470.243	413.88
470.462	440.88
470.681	431.88
470.901	433.88
471.12	424.88
471.339	413.88
471.558	419.88
471.777	445.88
471.997	398.88
472.216	407.88
472.435	414.88
472.654	413.88
472.873	408.88
473.092	410.88
473.311	396.88
473.53	410.88
473.749	446.88
473.968	464.88
474.187	545.88
474.406	581.88
474.625	473.88
474.844	411.88
475.063	426.88
475.282	423.88
475.501	425.88
475.72	424.88
475.939	402.88
476.158	427.88
476.377	425.88
476.596	411.88
476.814	419.88
477.033	419.88
477.252	443.88
477.471	412.88
477.69	451.88
477.908	435.88
478.127	443.88
478.346	431.88
478.564	470.88
478.783	455.88
479.002	447.88
479.22	463.88
479.439	474.88
479.658	474.88
479.876	493.88
480.095	511.88
480.313	519.88
480.532	520.88
480.751	496.88
480.969	482.88
481.188	500.88
481.406	491.88
481.624	501.88
481.843	511.88
482.061	489.88
482.28	492.88
482.498	484.88
482.717	469.88
482.935	481.88
483.153	498.88
483.372	463.88
483.59	478.88
483.808	476.88
484.027	489.88
484.245	478.88
484.463	497.88
484.681	501.88
484.9	496.88
485.118	490.88
485.336	497.88
485.554	507.88
485.772	492.88
485.99	489.88
486.209	492.88
486.427	515.88
486.645	512.88
486.863	532.88
487.081	530.88
487.299	531.88
487.517	502.88
487.735	508.88
487.953	523.88
488.171	517.88
488.389	518.88
488.607	517.88
488.825	525.88
489.043	496.88
489.261	519.88
489.479	514.88
489.696	523.88
489.914	548.88
490.132	542.88
490.35	559.88
490.568	551.88
490.786	576.88
491.003	550.88
491.221	564.88
491.439	571.88
491.657	582.88
491.874	586.88
492.092	594.88
492.31	586.88
492.527	591.88
492.745	584.88
492.963	576.88
493.18	610.88
493.398	602.88
493.615	623.88
493.833	613.88
494.05	601.88
494.268	601.88
494.485	599.88
494.703	589.88
494.92	619.88
495.138	630.88
495.355	619.88
495.573	633.88
495.79	627.88
496.008	612.88
496.225	601.88
496.442	641.88
496.66	619.88
496.877	637.88
497.094	647.88
497.312	618.88
497.529	643.88
497.746	655.88
497.963	641.88
498.181	665.88
498.398	677.88
498.615	675.88
498.832	689.88
499.049	690.88
499.267	684.88
499.484	713.88
499.701	704.88
499.918	747.88
500.135	801.88
500.352	782.88
500.569	823.88
500.786	829.88
501.003	779.88
501.22	786.88
501.437	791.88
501.654	757.88
501.871	747.88
