Data from 1989.PennyLincolnUp.Lamp.En5.5.200Scan.071819.P2_HRD10591_17-25-01-974.txt Node
Date: Thu Jul 18 17:25:01 EDT 2019
User: cochatt
Spectrometer: HR+D1059
Trigger mode: 1
Integration Time (sec): 1.000000E-1
Scans to average: 1
Electric dark correction enabled: true
Nonlinearity correction enabled: false
Boxcar width: 0
XAxis mode: Wavelengths
Number of Pixels in Spectrum: 2048
>>>>>Begin Spectral Data<<<<<
223.165	-18.12
223.4	-18.12
223.635	-18.12
223.869	-18.12
224.104	-1.12
224.338	-9.12
224.573	-12.12
224.808	-9.12
225.042	-26.12
225.277	-9.12
225.511	-13.12
225.746	-2.12
225.98	13.88
226.215	8.88
226.449	20.88
226.683	18.88
226.918	18.88
227.152	36.88
227.387	4.88
227.621	26.88
227.856	28.88
228.09	50.88
228.324	32.88
228.559	65.88
228.793	69.88
229.027	81.88
229.262	102.88
229.496	120.88
229.73	137.88
229.964	152.88
230.199	121.88
230.433	110.88
230.667	110.88
230.901	115.88
231.136	111.88
231.37	113.88
231.604	121.88
231.838	114.88
232.072	104.88
232.306	107.88
232.541	105.88
232.775	117.88
233.009	105.88
233.243	109.88
233.477	125.88
233.711	100.88
233.945	103.88
234.179	112.88
234.413	115.88
234.647	100.88
234.881	114.88
235.115	117.88
235.349	112.88
235.583	121.88
235.817	123.88
236.051	128.88
236.285	115.88
236.519	129.88
236.753	111.88
236.987	132.88
237.221	200.88
237.455	235.88
237.689	199.88
237.922	152.88
238.156	135.88
238.39	124.88
238.624	133.88
238.858	114.88
239.091	125.88
239.325	132.88
239.559	129.88
239.793	129.88
240.027	128.88
240.26	159.88
240.494	176.88
240.728	145.88
240.961	147.88
241.195	147.88
241.429	132.88
241.662	137.88
241.896	137.88
242.13	134.88
242.363	129.88
242.597	125.88
242.83	134.88
243.064	149.88
243.298	125.88
243.531	135.88
243.765	149.88
243.998	135.88
244.232	149.88
244.465	148.88
244.699	126.88
244.932	142.88
245.166	148.88
245.399	152.88
245.633	153.88
245.866	145.88
246.099	150.88
246.333	167.88
246.566	150.88
246.8	155.88
247.033	153.88
247.266	165.88
247.5	166.88
247.733	178.88
247.966	177.88
248.2	171.88
248.433	175.88
248.666	179.88
248.899	186.88
249.133	209.88
249.366	214.88
249.599	216.88
249.832	197.88
250.066	179.88
250.299	190.88
250.532	201.88
250.765	202.88
250.998	232.88
251.231	234.88
251.465	223.88
251.698	222.88
251.931	218.88
252.164	208.88
252.397	202.88
252.63	204.88
252.863	207.88
253.096	232.88
253.329	244.88
253.562	239.88
253.795	235.88
254.028	235.88
254.261	224.88
254.494	239.88
254.727	290.88
254.96	311.88
255.193	301.88
255.426	272.88
255.659	264.88
255.892	255.88
256.124	259.88
256.357	266.88
256.59	235.88
256.823	222.88
257.056	212.88
257.289	235.88
257.521	227.88
257.754	233.88
257.987	241.88
258.22	230.88
258.452	226.88
258.685	247.88
258.918	220.88
259.151	230.88
259.383	223.88
259.616	244.88
259.849	257.88
260.081	242.88
260.314	267.88
260.547	268.88
260.779	292.88
261.012	249.88
261.244	257.88
261.477	262.88
261.71	251.88
261.942	241.88
262.175	254.88
262.407	245.88
262.64	231.88
262.872	236.88
263.105	246.88
263.337	233.88
263.57	225.88
263.802	221.88
264.035	229.88
264.267	230.88
264.499	222.88
264.732	239.88
264.964	216.88
265.197	249.88
265.429	221.88
265.661	235.88
265.894	214.88
266.126	219.88
266.358	229.88
266.591	224.88
266.823	243.88
267.055	235.88
267.287	235.88
267.52	245.88
267.752	227.88
267.984	251.88
268.216	241.88
268.448	231.88
268.681	273.88
268.913	266.88
269.145	276.88
269.377	297.88
269.609	301.88
269.841	298.88
270.073	294.88
270.306	322.88
270.538	323.88
270.77	339.88
271.002	340.88
271.234	312.88
271.466	303.88
271.698	329.88
271.93	341.88
272.162	349.88
272.394	348.88
272.626	323.88
272.858	332.88
273.09	304.88
273.322	301.88
273.553	294.88
273.785	299.88
274.017	286.88
274.249	278.88
274.481	297.88
274.713	279.88
274.945	284.88
275.176	286.88
275.408	264.88
275.64	276.88
275.872	277.88
276.104	287.88
276.335	286.88
276.567	280.88
276.799	304.88
277.031	308.88
277.262	342.88
277.494	343.88
277.726	325.88
277.957	304.88
278.189	317.88
278.421	311.88
278.652	278.88
278.884	300.88
279.115	273.88
279.347	279.88
279.579	264.88
279.81	271.88
280.042	287.88
280.273	292.88
280.505	274.88
280.736	285.88
280.968	271.88
281.199	282.88
281.431	282.88
281.662	285.88
281.894	297.88
282.125	304.88
282.356	296.88
282.588	315.88
282.819	313.88
283.051	309.88
283.282	300.88
283.513	266.88
283.745	276.88
283.976	301.88
284.207	288.88
284.439	286.88
284.67	296.88
284.901	285.88
285.132	283.88
285.364	288.88
285.595	301.88
285.826	295.88
286.057	291.88
286.288	296.88
286.52	294.88
286.751	281.88
286.982	284.88
287.213	319.88
287.444	293.88
287.675	296.88
287.906	299.88
288.138	304.88
288.369	314.88
288.6	311.88
288.831	309.88
289.062	316.88
289.293	309.88
289.524	326.88
289.755	311.88
289.986	306.88
290.217	285.88
290.448	317.88
290.679	307.88
290.91	303.88
291.141	305.88
291.371	303.88
291.602	272.88
291.833	311.88
292.064	309.88
292.295	294.88
292.526	306.88
292.757	307.88
292.987	295.88
293.218	295.88
293.449	285.88
293.68	303.88
293.91	288.88
294.141	279.88
294.372	287.88
294.603	296.88
294.833	311.88
295.064	323.88
295.295	305.88
295.525	296.88
295.756	313.88
295.987	325.88
296.217	328.88
296.448	343.88
296.679	320.88
296.909	303.88
297.14	294.88
297.37	312.88
297.601	312.88
297.831	310.88
298.062	311.88
298.292	304.88
298.523	316.88
298.753	323.88
298.984	328.88
299.214	308.88
299.445	306.88
299.675	303.88
299.905	326.88
300.136	331.88
300.366	307.88
300.597	319.88
300.827	311.88
301.057	332.88
301.288	346.88
301.518	334.88
301.748	342.88
301.979	328.88
302.209	346.88
302.439	340.88
302.669	303.88
302.9	342.88
303.13	358.88
303.36	332.88
303.59	363.88
303.82	341.88
304.051	361.88
304.281	341.88
304.511	329.88
304.741	340.88
304.971	340.88
305.201	331.88
305.431	347.88
305.661	340.88
305.891	318.88
306.121	349.88
306.352	344.88
306.582	357.88
306.812	345.88
307.042	331.88
307.272	324.88
307.502	352.88
307.731	343.88
307.961	343.88
308.191	344.88
308.421	356.88
308.651	368.88
308.881	335.88
309.111	366.88
309.341	351.88
309.571	348.88
309.8	387.88
310.03	389.88
310.26	397.88
310.49	409.88
310.72	435.88
310.949	403.88
311.179	422.88
311.409	417.88
311.639	404.88
311.868	391.88
312.098	391.88
312.328	424.88
312.557	424.88
312.787	423.88
313.017	452.88
313.246	411.88
313.476	386.88
313.706	388.88
313.935	404.88
314.165	428.88
314.394	417.88
314.624	420.88
314.853	419.88
315.083	391.88
315.312	401.88
315.542	395.88
315.771	398.88
316.001	381.88
316.23	397.88
316.46	384.88
316.689	393.88
316.919	401.88
317.148	397.88
317.377	422.88
317.607	400.88
317.836	410.88
318.065	395.88
318.295	393.88
318.524	402.88
318.753	395.88
318.983	396.88
319.212	374.88
319.441	403.88
319.67	405.88
319.9	401.88
320.129	413.88
320.358	398.88
320.587	403.88
320.816	410.88
321.046	417.88
321.275	422.88
321.504	410.88
321.733	417.88
321.962	435.88
322.191	456.88
322.42	460.88
322.649	466.88
322.878	492.88
323.108	481.88
323.337	541.88
323.566	553.88
323.795	596.88
324.024	648.88
324.253	799.88
324.482	1135.88
324.71	1756.88
324.939	2480.88
325.168	2185.88
325.397	1116.88
325.626	760.88
325.855	619.88
326.084	562.88
326.313	531.88
326.542	552.88
326.77	612.88
326.999	736.88
327.228	998.88
327.457	1514.88
327.686	1894.88
327.914	1271.88
328.143	806.88
328.372	704.88
328.6	643.88
328.829	625.88
329.058	623.88
329.287	635.88
329.515	619.88
329.744	549.88
329.972	536.88
330.201	546.88
330.43	594.88
330.658	642.88
330.887	643.88
331.115	656.88
331.344	543.88
331.572	533.88
331.801	530.88
332.03	529.88
332.258	469.88
332.486	465.88
332.715	462.88
332.943	452.88
333.172	478.88
333.4	473.88
333.629	475.88
333.857	476.88
334.085	491.88
334.314	513.88
334.542	501.88
334.771	545.88
334.999	491.88
335.227	464.88
335.455	451.88
335.684	487.88
335.912	474.88
336.14	448.88
336.369	458.88
336.597	466.88
336.825	458.88
337.053	468.88
337.281	444.88
337.51	439.88
337.738	461.88
337.966	444.88
338.194	475.88
338.422	454.88
338.65	450.88
338.878	441.88
339.106	449.88
339.334	461.88
339.562	443.88
339.79	431.88
340.018	445.88
340.246	433.88
340.474	456.88
340.702	441.88
340.93	439.88
341.158	440.88
341.386	432.88
341.614	473.88
341.842	449.88
342.07	429.88
342.298	425.88
342.526	420.88
342.754	413.88
342.981	433.88
343.209	415.88
343.437	420.88
343.665	439.88
343.893	411.88
344.12	435.88
344.348	455.88
344.576	419.88
344.804	452.88
345.031	453.88
345.259	455.88
345.487	454.88
345.714	457.88
345.942	421.88
346.17	428.88
346.397	423.88
346.625	425.88
346.853	407.88
347.08	417.88
347.308	425.88
347.535	432.88
347.763	437.88
347.99	420.88
348.218	436.88
348.445	448.88
348.673	435.88
348.9	447.88
349.128	429.88
349.355	420.88
349.583	405.88
349.81	412.88
350.037	398.88
350.265	407.88
350.492	401.88
350.72	383.88
350.947	414.88
351.174	428.88
351.402	439.88
351.629	440.88
351.856	427.88
352.083	442.88
352.311	449.88
352.538	427.88
352.765	449.88
352.992	423.88
353.22	431.88
353.447	422.88
353.674	406.88
353.901	410.88
354.128	399.88
354.355	379.88
354.583	383.88
354.81	386.88
355.037	383.88
355.264	407.88
355.491	373.88
355.718	371.88
355.945	390.88
356.172	405.88
356.399	390.88
356.626	401.88
356.853	401.88
357.08	392.88
357.307	393.88
357.534	372.88
357.761	392.88
357.988	406.88
358.215	381.88
358.441	380.88
358.668	390.88
358.895	385.88
359.122	382.88
359.349	399.88
359.576	421.88
359.802	420.88
360.029	457.88
360.256	465.88
360.483	469.88
360.709	426.88
360.936	429.88
361.163	397.88
361.39	427.88
361.616	423.88
361.843	419.88
362.07	405.88
362.296	420.88
362.523	403.88
362.749	408.88
362.976	413.88
363.203	401.88
363.429	397.88
363.656	379.88
363.882	401.88
364.109	401.88
364.335	415.88
364.562	416.88
364.788	405.88
365.015	395.88
365.241	380.88
365.468	400.88
365.694	416.88
365.92	407.88
366.147	403.88
366.373	382.88
366.599	373.88
366.826	374.88
367.052	374.88
367.278	381.88
367.505	407.88
367.731	393.88
367.957	396.88
368.184	372.88
368.41	396.88
368.636	411.88
368.862	385.88
369.089	404.88
369.315	401.88
369.541	385.88
369.767	388.88
369.993	399.88
370.219	393.88
370.445	384.88
370.672	391.88
370.898	385.88
371.124	368.88
371.35	387.88
371.576	372.88
371.802	384.88
372.028	389.88
372.254	388.88
372.48	388.88
372.706	370.88
372.932	395.88
373.158	388.88
373.384	375.88
373.61	367.88
373.835	387.88
374.061	387.88
374.287	389.88
374.513	403.88
374.739	389.88
374.965	381.88
375.191	388.88
375.416	393.88
375.642	393.88
375.868	372.88
376.094	388.88
376.319	405.88
376.545	383.88
376.771	356.88
376.997	389.88
377.222	379.88
377.448	377.88
377.674	367.88
377.899	373.88
378.125	370.88
378.35	365.88
378.576	378.88
378.802	388.88
379.027	376.88
379.253	375.88
379.478	383.88
379.704	356.88
379.929	390.88
380.155	394.88
380.38	393.88
380.606	377.88
380.831	396.88
381.057	391.88
381.282	367.88
381.507	407.88
381.733	382.88
381.958	381.88
382.184	397.88
382.409	380.88
382.634	377.88
382.86	375.88
383.085	390.88
383.31	402.88
383.535	384.88
383.761	380.88
383.986	396.88
384.211	386.88
384.436	380.88
384.662	382.88
384.887	396.88
385.112	393.88
385.337	399.88
385.562	392.88
385.787	397.88
386.013	420.88
386.238	422.88
386.463	416.88
386.688	425.88
386.913	396.88
387.138	383.88
387.363	397.88
387.588	405.88
387.813	398.88
388.038	403.88
388.263	408.88
388.488	397.88
388.713	387.88
388.938	406.88
389.163	424.88
389.387	413.88
389.612	386.88
389.837	387.88
390.062	396.88
390.287	405.88
390.512	373.88
390.736	391.88
390.961	388.88
391.186	416.88
391.411	391.88
391.636	396.88
391.86	395.88
392.085	424.88
392.31	391.88
392.534	397.88
392.759	402.88
392.984	417.88
393.208	393.88
393.433	399.88
393.658	414.88
393.882	395.88
394.107	410.88
394.331	396.88
394.556	405.88
394.78	402.88
395.005	400.88
395.229	407.88
395.454	403.88
395.678	398.88
395.903	428.88
396.127	440.88
396.352	469.88
396.576	423.88
396.801	390.88
397.025	413.88
397.249	412.88
397.474	413.88
397.698	416.88
397.922	423.88
398.147	451.88
398.371	451.88
398.595	446.88
398.82	429.88
399.044	431.88
399.268	466.88
399.492	473.88
399.717	491.88
399.941	509.88
400.165	546.88
400.389	553.88
400.613	519.88
400.837	491.88
401.062	441.88
401.286	465.88
401.51	456.88
401.734	463.88
401.958	433.88
402.182	463.88
402.406	474.88
402.63	465.88
402.854	465.88
403.078	460.88
403.302	485.88
403.526	492.88
403.75	479.88
403.974	472.88
404.198	447.88
404.422	471.88
404.645	476.88
404.869	484.88
405.093	512.88
405.317	542.88
405.541	557.88
405.765	511.88
405.988	483.88
406.212	503.88
406.436	517.88
406.66	541.88
406.883	507.88
407.107	523.88
407.331	565.88
407.555	632.88
407.778	639.88
408.002	558.88
408.226	523.88
408.449	527.88
408.673	534.88
408.896	547.88
409.12	564.88
409.344	544.88
409.567	478.88
409.791	488.88
410.014	470.88
410.238	452.88
410.461	457.88
410.685	498.88
410.908	465.88
411.132	519.88
411.355	589.88
411.578	544.88
411.802	484.88
412.025	467.88
412.249	496.88
412.472	469.88
412.695	507.88
412.919	509.88
413.142	477.88
413.365	454.88
413.589	472.88
413.812	444.88
414.035	435.88
414.258	427.88
414.482	444.88
414.705	446.88
414.928	447.88
415.151	430.88
415.374	425.88
415.597	436.88
415.821	426.88
416.044	441.88
416.267	423.88
416.49	419.88
416.713	427.88
416.936	450.88
417.159	443.88
417.382	445.88
417.605	447.88
417.828	451.88
418.051	467.88
418.274	460.88
418.497	468.88
418.72	450.88
418.943	441.88
419.166	469.88
419.389	494.88
419.611	487.88
419.834	477.88
420.057	469.88
420.28	467.88
420.503	465.88
420.726	470.88
420.948	487.88
421.171	535.88
421.394	563.88
421.617	482.88
421.839	464.88
422.062	462.88
422.285	453.88
422.507	552.88
422.73	635.88
422.953	605.88
423.175	509.88
423.398	507.88
423.621	496.88
423.843	503.88
424.066	511.88
424.288	501.88
424.511	535.88
424.733	577.88
424.956	677.88
425.178	650.88
425.401	638.88
425.623	647.88
425.846	552.88
426.068	513.88
426.291	503.88
426.513	540.88
426.735	518.88
426.958	572.88
427.18	624.88
427.402	760.88
427.625	861.88
427.847	781.88
428.069	640.88
428.292	577.88
428.514	534.88
428.736	492.88
428.958	479.88
429.181	459.88
429.403	462.88
429.625	493.88
429.847	512.88
430.069	599.88
430.292	583.88
430.514	504.88
430.736	493.88
430.958	472.88
431.18	437.88
431.402	445.88
431.624	437.88
431.846	433.88
432.068	418.88
432.29	424.88
432.512	428.88
432.734	439.88
432.956	451.88
433.178	469.88
433.4	457.88
433.622	477.88
433.844	444.88
434.066	431.88
434.287	441.88
434.509	437.88
434.731	428.88
434.953	454.88
435.175	480.88
435.397	502.88
435.618	499.88
435.84	552.88
436.062	653.88
436.284	704.88
436.505	581.88
436.727	533.88
436.949	486.88
437.17	487.88
437.392	476.88
437.614	480.88
437.835	516.88
438.057	627.88
438.278	718.88
438.5	712.88
438.721	803.88
438.943	766.88
439.165	607.88
439.386	544.88
439.608	531.88
439.829	519.88
440.05	552.88
440.272	590.88
440.493	600.88
440.715	533.88
440.936	491.88
441.158	488.88
441.379	454.88
441.6	474.88
441.822	493.88
442.043	536.88
442.264	629.88
442.486	667.88
442.707	577.88
442.928	520.88
443.149	560.88
443.371	586.88
443.592	588.88
443.813	704.88
444.034	763.88
444.255	631.88
444.476	521.88
444.698	521.88
444.919	498.88
445.14	581.88
445.361	544.88
445.582	572.88
445.803	638.88
446.024	721.88
446.245	747.88
446.466	680.88
446.687	548.88
446.908	503.88
447.129	494.88
447.35	483.88
447.571	468.88
447.792	456.88
448.013	485.88
448.234	492.88
448.455	566.88
448.675	665.88
448.896	763.88
449.117	646.88
449.338	617.88
449.559	732.88
449.779	815.88
450	655.88
450.221	545.88
450.442	500.88
450.662	499.88
450.883	486.88
451.104	496.88
451.324	483.88
451.545	446.88
451.766	432.88
451.986	419.88
452.207	444.88
452.428	415.88
452.648	429.88
452.869	438.88
453.089	437.88
453.31	452.88
453.53	431.88
453.751	420.88
453.971	437.88
454.192	447.88
454.412	453.88
454.633	448.88
454.853	413.88
455.073	412.88
455.294	449.88
455.514	514.88
455.734	497.88
455.955	435.88
456.175	409.88
456.395	398.88
456.616	394.88
456.836	385.88
457.056	385.88
457.276	393.88
457.497	384.88
457.717	386.88
457.937	392.88
458.157	406.88
458.377	443.88
458.598	422.88
458.818	501.88
459.038	585.88
459.258	616.88
459.478	498.88
459.698	456.88
459.918	425.88
460.138	444.88
460.358	423.88
460.578	441.88
460.798	448.88
461.018	430.88
461.238	428.88
461.458	444.88
461.678	421.88
461.898	418.88
462.118	426.88
462.338	421.88
462.558	437.88
462.777	448.88
462.997	445.88
463.217	451.88
463.437	466.88
463.657	421.88
463.876	462.88
464.096	455.88
464.316	474.88
464.536	478.88
464.755	465.88
464.975	458.88
465.195	534.88
465.414	599.88
465.634	537.88
465.854	472.88
466.073	457.88
466.293	420.88
466.512	429.88
466.732	436.88
466.951	421.88
467.171	418.88
467.391	446.88
467.61	434.88
467.829	447.88
468.049	441.88
468.268	428.88
468.488	432.88
468.707	412.88
468.927	406.88
469.146	409.88
469.365	412.88
469.585	430.88
469.804	430.88
470.023	430.88
470.243	437.88
470.462	429.88
470.681	449.88
470.901	448.88
471.12	429.88
471.339	420.88
471.558	426.88
471.777	440.88
471.997	437.88
472.216	436.88
472.435	478.88
472.654	451.88
472.873	396.88
473.092	431.88
473.311	424.88
473.53	419.88
473.749	437.88
473.968	504.88
474.187	598.88
474.406	624.88
474.625	498.88
474.844	445.88
475.063	451.88
475.282	428.88
475.501	427.88
475.72	437.88
475.939	437.88
476.158	428.88
476.377	435.88
476.596	446.88
476.814	449.88
477.033	446.88
477.252	478.88
477.471	447.88
477.69	461.88
477.908	477.88
478.127	479.88
478.346	459.88
478.564	461.88
478.783	463.88
479.002	495.88
479.22	480.88
479.439	519.88
479.658	525.88
479.876	539.88
480.095	526.88
480.313	540.88
480.532	537.88
480.751	521.88
480.969	547.88
481.188	580.88
481.406	598.88
481.624	565.88
481.843	527.88
482.061	521.88
482.28	508.88
482.498	489.88
482.717	461.88
482.935	492.88
483.153	509.88
483.372	497.88
483.59	527.88
483.808	481.88
484.027	501.88
484.245	513.88
484.463	518.88
484.681	529.88
484.9	497.88
485.118	491.88
485.336	510.88
485.554	517.88
485.772	533.88
485.99	543.88
486.209	520.88
486.427	540.88
486.645	563.88
486.863	555.88
487.081	535.88
487.299	568.88
487.517	531.88
487.735	555.88
487.953	540.88
488.171	561.88
488.389	557.88
488.607	552.88
488.825	545.88
489.043	542.88
489.261	561.88
489.479	536.88
489.696	560.88
489.914	563.88
490.132	567.88
490.35	565.88
490.568	563.88
490.786	588.88
491.003	582.88
491.221	614.88
491.439	594.88
491.657	613.88
491.874	626.88
492.092	631.88
492.31	648.88
492.527	631.88
492.745	619.88
492.963	647.88
493.18	645.88
493.398	663.88
493.615	644.88
493.833	649.88
494.05	630.88
494.268	629.88
494.485	629.88
494.703	639.88
494.92	638.88
495.138	626.88
495.355	631.88
495.573	667.88
495.79	641.88
496.008	631.88
496.225	635.88
496.442	646.88
496.66	647.88
496.877	649.88
497.094	667.88
497.312	663.88
497.529	661.88
497.746	669.88
497.963	695.88
498.181	685.88
498.398	683.88
498.615	685.88
498.832	728.88
499.049	735.88
499.267	711.88
499.484	733.88
499.701	737.88
499.918	815.88
500.135	801.88
500.352	837.88
500.569	835.88
500.786	806.88
501.003	842.88
501.22	797.88
501.437	800.88
501.654	810.88
501.871	781.88
