Data from 1989.PennyLincolnUp.Lamp.En5.5.200Scan.071819.P2_HRD10591_17-25-55-973.txt Node
Date: Thu Jul 18 17:25:55 EDT 2019
User: cochatt
Spectrometer: HR+D1059
Trigger mode: 1
Integration Time (sec): 1.000000E-1
Scans to average: 1
Electric dark correction enabled: true
Nonlinearity correction enabled: false
Boxcar width: 0
XAxis mode: Wavelengths
Number of Pixels in Spectrum: 2048
>>>>>Begin Spectral Data<<<<<
223.165	-7.69
223.4	-7.69
223.635	-7.69
223.869	-17.69
224.104	-16.69
224.338	-28.69
224.573	-22.69
224.808	-3.69
225.042	-18.69
225.277	-3.69
225.511	-2.69
225.746	-6.69
225.98	7.31
226.215	9.31
226.449	19.31
226.683	29.31
226.918	31.31
227.152	32.31
227.387	34.31
227.621	46.31
227.856	59.31
228.09	46.31
228.324	55.31
228.559	52.31
228.793	72.31
229.027	110.31
229.262	133.31
229.496	128.31
229.73	134.31
229.964	191.31
230.199	147.31
230.433	119.31
230.667	133.31
230.901	121.31
231.136	137.31
231.37	125.31
231.604	111.31
231.838	134.31
232.072	115.31
232.306	130.31
232.541	134.31
232.775	138.31
233.009	128.31
233.243	106.31
233.477	112.31
233.711	135.31
233.945	139.31
234.179	126.31
234.413	130.31
234.647	126.31
234.881	123.31
235.115	118.31
235.349	118.31
235.583	107.31
235.817	124.31
236.051	134.31
236.285	150.31
236.519	145.31
236.753	146.31
236.987	154.31
237.221	189.31
237.455	264.31
237.689	187.31
237.922	144.31
238.156	136.31
238.39	136.31
238.624	128.31
238.858	125.31
239.091	136.31
239.325	129.31
239.559	126.31
239.793	130.31
240.027	126.31
240.26	146.31
240.494	175.31
240.728	156.31
240.961	163.31
241.195	165.31
241.429	151.31
241.662	161.31
241.896	138.31
242.13	141.31
242.363	134.31
242.597	134.31
242.83	138.31
243.064	146.31
243.298	152.31
243.531	156.31
243.765	151.31
243.998	149.31
244.232	144.31
244.465	165.31
244.699	167.31
244.932	164.31
245.166	172.31
245.399	155.31
245.633	133.31
245.866	148.31
246.099	150.31
246.333	178.31
246.566	166.31
246.8	170.31
247.033	195.31
247.266	174.31
247.5	186.31
247.733	183.31
247.966	183.31
248.2	210.31
248.433	190.31
248.666	206.31
248.899	220.31
249.133	218.31
249.366	234.31
249.599	214.31
249.832	197.31
250.066	206.31
250.299	195.31
250.532	224.31
250.765	247.31
250.998	249.31
251.231	260.31
251.465	255.31
251.698	218.31
251.931	223.31
252.164	227.31
252.397	198.31
252.63	229.31
252.863	223.31
253.096	235.31
253.329	258.31
253.562	259.31
253.795	238.31
254.028	252.31
254.261	261.31
254.494	239.31
254.727	292.31
254.96	309.31
255.193	326.31
255.426	281.31
255.659	261.31
255.892	285.31
256.124	285.31
256.357	287.31
256.59	267.31
256.823	255.31
257.056	266.31
257.289	247.31
257.521	240.31
257.754	234.31
257.987	235.31
258.22	250.31
258.452	219.31
258.685	248.31
258.918	227.31
259.151	227.31
259.383	248.31
259.616	238.31
259.849	260.31
260.081	258.31
260.314	278.31
260.547	299.31
260.779	272.31
261.012	255.31
261.244	255.31
261.477	247.31
261.71	247.31
261.942	256.31
262.175	269.31
262.407	278.31
262.64	233.31
262.872	239.31
263.105	224.31
263.337	229.31
263.57	243.31
263.802	268.31
264.035	243.31
264.267	231.31
264.499	234.31
264.732	247.31
264.964	246.31
265.197	235.31
265.429	243.31
265.661	252.31
265.894	232.31
266.126	244.31
266.358	236.31
266.591	241.31
266.823	239.31
267.055	231.31
267.287	247.31
267.52	246.31
267.752	248.31
267.984	255.31
268.216	248.31
268.448	252.31
268.681	246.31
268.913	284.31
269.145	284.31
269.377	315.31
269.609	316.31
269.841	283.31
270.073	286.31
270.306	331.31
270.538	378.31
270.77	348.31
271.002	330.31
271.234	336.31
271.466	334.31
271.698	340.31
271.93	355.31
272.162	373.31
272.394	349.31
272.626	351.31
272.858	333.31
273.09	333.31
273.322	328.31
273.553	296.31
273.785	296.31
274.017	302.31
274.249	291.31
274.481	294.31
274.713	293.31
274.945	280.31
275.176	287.31
275.408	303.31
275.64	290.31
275.872	286.31
276.104	308.31
276.335	299.31
276.567	306.31
276.799	326.31
277.031	339.31
277.262	363.31
277.494	371.31
277.726	354.31
277.957	330.31
278.189	319.31
278.421	310.31
278.652	307.31
278.884	306.31
279.115	295.31
279.347	314.31
279.579	288.31
279.81	297.31
280.042	287.31
280.273	301.31
280.505	302.31
280.736	301.31
280.968	300.31
281.199	301.31
281.431	306.31
281.662	284.31
281.894	288.31
282.125	323.31
282.356	326.31
282.588	341.31
282.819	362.31
283.051	316.31
283.282	313.31
283.513	312.31
283.745	302.31
283.976	301.31
284.207	289.31
284.439	317.31
284.67	307.31
284.901	318.31
285.132	306.31
285.364	309.31
285.595	312.31
285.826	306.31
286.057	315.31
286.288	302.31
286.52	313.31
286.751	314.31
286.982	312.31
287.213	311.31
287.444	326.31
287.675	326.31
287.906	314.31
288.138	336.31
288.369	340.31
288.6	343.31
288.831	327.31
289.062	331.31
289.293	342.31
289.524	325.31
289.755	313.31
289.986	331.31
290.217	313.31
290.448	333.31
290.679	330.31
290.91	328.31
291.141	314.31
291.371	321.31
291.602	338.31
291.833	323.31
292.064	296.31
292.295	311.31
292.526	311.31
292.757	312.31
292.987	316.31
293.218	313.31
293.449	299.31
293.68	314.31
293.91	327.31
294.141	315.31
294.372	304.31
294.603	340.31
294.833	324.31
295.064	305.31
295.295	309.31
295.525	318.31
295.756	338.31
295.987	341.31
296.217	367.31
296.448	383.31
296.679	349.31
296.909	336.31
297.14	314.31
297.37	327.31
297.601	335.31
297.831	313.31
298.062	319.31
298.292	325.31
298.523	338.31
298.753	315.31
298.984	347.31
299.214	331.31
299.445	344.31
299.675	336.31
299.905	335.31
300.136	334.31
300.366	312.31
300.597	331.31
300.827	346.31
301.057	355.31
301.288	371.31
301.518	345.31
301.748	354.31
301.979	355.31
302.209	350.31
302.439	355.31
302.669	359.31
302.9	365.31
303.13	353.31
303.36	357.31
303.59	335.31
303.82	372.31
304.051	384.31
304.281	343.31
304.511	363.31
304.741	362.31
304.971	359.31
305.201	362.31
305.431	350.31
305.661	358.31
305.891	353.31
306.121	379.31
306.352	362.31
306.582	383.31
306.812	338.31
307.042	360.31
307.272	346.31
307.502	363.31
307.731	377.31
307.961	370.31
308.191	357.31
308.421	345.31
308.651	372.31
308.881	357.31
309.111	374.31
309.341	360.31
309.571	386.31
309.8	381.31
310.03	412.31
310.26	412.31
310.49	401.31
310.72	404.31
310.949	437.31
311.179	446.31
311.409	441.31
311.639	415.31
311.868	405.31
312.098	411.31
312.328	432.31
312.557	442.31
312.787	440.31
313.017	476.31
313.246	431.31
313.476	413.31
313.706	415.31
313.935	428.31
314.165	440.31
314.394	459.31
314.624	429.31
314.853	414.31
315.083	443.31
315.312	408.31
315.542	388.31
315.771	414.31
316.001	404.31
316.23	411.31
316.46	416.31
316.689	398.31
316.919	418.31
317.148	429.31
317.377	432.31
317.607	423.31
317.836	429.31
318.065	412.31
318.295	416.31
318.524	413.31
318.753	421.31
318.983	402.31
319.212	398.31
319.441	409.31
319.67	442.31
319.9	422.31
320.129	416.31
320.358	423.31
320.587	426.31
320.816	446.31
321.046	454.31
321.275	446.31
321.504	455.31
321.733	448.31
321.962	457.31
322.191	474.31
322.42	489.31
322.649	484.31
322.878	491.31
323.108	532.31
323.337	554.31
323.566	567.31
323.795	616.31
324.024	654.31
324.253	830.31
324.482	1192.31
324.71	1840.31
324.939	2730.31
325.168	2354.31
325.397	1183.31
325.626	780.31
325.855	639.31
326.084	572.31
326.313	594.31
326.542	607.31
326.77	653.31
326.999	783.31
327.228	1058.31
327.457	1639.31
327.686	2050.31
327.914	1344.31
328.143	847.31
328.372	761.31
328.6	733.31
328.829	674.31
329.058	694.31
329.287	696.31
329.515	648.31
329.744	601.31
329.972	607.31
330.201	611.31
330.43	682.31
330.658	704.31
330.887	700.31
331.115	687.31
331.344	588.31
331.572	558.31
331.801	564.31
332.03	567.31
332.258	520.31
332.486	519.31
332.715	503.31
332.943	504.31
333.172	495.31
333.4	534.31
333.629	511.31
333.857	533.31
334.085	559.31
334.314	592.31
334.542	673.31
334.771	682.31
334.999	586.31
335.227	556.31
335.455	517.31
335.684	485.31
335.912	489.31
336.14	491.31
336.369	507.31
336.597	490.31
336.825	494.31
337.053	494.31
337.281	468.31
337.51	479.31
337.738	468.31
337.966	482.31
338.194	470.31
338.422	471.31
338.65	463.31
338.878	441.31
339.106	466.31
339.334	459.31
339.562	471.31
339.79	434.31
340.018	490.31
340.246	459.31
340.474	460.31
340.702	446.31
340.93	446.31
341.158	428.31
341.386	461.31
341.614	461.31
341.842	477.31
342.07	476.31
342.298	472.31
342.526	469.31
342.754	445.31
342.981	435.31
343.209	433.31
343.437	448.31
343.665	445.31
343.893	461.31
344.12	439.31
344.348	451.31
344.576	457.31
344.804	469.31
345.031	469.31
345.259	477.31
345.487	474.31
345.714	453.31
345.942	453.31
346.17	455.31
346.397	443.31
346.625	459.31
346.853	430.31
347.08	441.31
347.308	442.31
347.535	472.31
347.763	487.31
347.99	461.31
348.218	468.31
348.445	484.31
348.673	445.31
348.9	447.31
349.128	409.31
349.355	425.31
349.583	419.31
349.81	440.31
350.037	440.31
350.265	400.31
350.492	432.31
350.72	426.31
350.947	445.31
351.174	446.31
351.402	463.31
351.629	442.31
351.856	445.31
352.083	446.31
352.311	452.31
352.538	447.31
352.765	443.31
352.992	469.31
353.22	447.31
353.447	434.31
353.674	430.31
353.901	421.31
354.128	416.31
354.355	421.31
354.583	427.31
354.81	406.31
355.037	405.31
355.264	392.31
355.491	406.31
355.718	402.31
355.945	406.31
356.172	396.31
356.399	422.31
356.626	410.31
356.853	399.31
357.08	409.31
357.307	412.31
357.534	391.31
357.761	412.31
357.988	417.31
358.215	398.31
358.441	405.31
358.668	409.31
358.895	404.31
359.122	384.31
359.349	435.31
359.576	439.31
359.802	449.31
360.029	489.31
360.256	500.31
360.483	484.31
360.709	467.31
360.936	441.31
361.163	444.31
361.39	445.31
361.616	436.31
361.843	461.31
362.07	430.31
362.296	434.31
362.523	431.31
362.749	421.31
362.976	426.31
363.203	428.31
363.429	420.31
363.656	420.31
363.882	420.31
364.109	416.31
364.335	416.31
364.562	403.31
364.788	409.31
365.015	400.31
365.241	414.31
365.468	407.31
365.694	422.31
365.92	418.31
366.147	403.31
366.373	401.31
366.599	418.31
366.826	409.31
367.052	391.31
367.278	401.31
367.505	388.31
367.731	400.31
367.957	439.31
368.184	408.31
368.41	407.31
368.636	412.31
368.862	436.31
369.089	420.31
369.315	397.31
369.541	408.31
369.767	419.31
369.993	405.31
370.219	420.31
370.445	424.31
370.672	405.31
370.898	418.31
371.124	414.31
371.35	390.31
371.576	411.31
371.802	397.31
372.028	404.31
372.254	406.31
372.48	404.31
372.706	394.31
372.932	409.31
373.158	413.31
373.384	421.31
373.61	395.31
373.835	405.31
374.061	408.31
374.287	397.31
374.513	414.31
374.739	382.31
374.965	384.31
375.191	404.31
375.416	398.31
375.642	396.31
375.868	398.31
376.094	418.31
376.319	398.31
376.545	387.31
376.771	406.31
376.997	388.31
377.222	399.31
377.448	392.31
377.674	410.31
377.899	382.31
378.125	379.31
378.35	382.31
378.576	388.31
378.802	376.31
379.027	408.31
379.253	410.31
379.478	382.31
379.704	374.31
379.929	388.31
380.155	385.31
380.38	384.31
380.606	425.31
380.831	390.31
381.057	397.31
381.282	391.31
381.507	396.31
381.733	401.31
381.958	387.31
382.184	391.31
382.409	398.31
382.634	400.31
382.86	409.31
383.085	404.31
383.31	379.31
383.535	399.31
383.761	411.31
383.986	395.31
384.211	412.31
384.436	421.31
384.662	406.31
384.887	421.31
385.112	420.31
385.337	422.31
385.562	413.31
385.787	422.31
386.013	449.31
386.238	454.31
386.463	416.31
386.688	414.31
386.913	407.31
387.138	406.31
387.363	419.31
387.588	424.31
387.813	413.31
388.038	401.31
388.263	394.31
388.488	406.31
388.713	414.31
388.938	419.31
389.163	418.31
389.387	423.31
389.612	404.31
389.837	410.31
390.062	420.31
390.287	419.31
390.512	415.31
390.736	412.31
390.961	407.31
391.186	404.31
391.411	410.31
391.636	428.31
391.86	422.31
392.085	438.31
392.31	427.31
392.534	419.31
392.759	396.31
392.984	416.31
393.208	409.31
393.433	414.31
393.658	399.31
393.882	399.31
394.107	415.31
394.331	409.31
394.556	423.31
394.78	435.31
395.005	412.31
395.229	419.31
395.454	431.31
395.678	437.31
395.903	436.31
396.127	450.31
396.352	467.31
396.576	456.31
396.801	436.31
397.025	445.31
397.249	435.31
397.474	432.31
397.698	463.31
397.922	444.31
398.147	446.31
398.371	480.31
398.595	467.31
398.82	471.31
399.044	460.31
399.268	478.31
399.492	492.31
399.717	534.31
399.941	547.31
400.165	580.31
400.389	612.31
400.613	539.31
400.837	512.31
401.062	486.31
401.286	494.31
401.51	484.31
401.734	498.31
401.958	491.31
402.182	488.31
402.406	473.31
402.63	502.31
402.854	477.31
403.078	465.31
403.302	499.31
403.526	471.31
403.75	488.31
403.974	512.31
404.198	483.31
404.422	490.31
404.645	498.31
404.869	494.31
405.093	541.31
405.317	581.31
405.541	626.31
405.765	580.31
405.988	539.31
406.212	553.31
406.436	516.31
406.66	536.31
406.883	540.31
407.107	559.31
407.331	608.31
407.555	654.31
407.778	667.31
408.002	607.31
408.226	572.31
408.449	558.31
408.673	551.31
408.896	579.31
409.12	624.31
409.344	582.31
409.567	515.31
409.791	516.31
410.014	504.31
410.238	487.31
410.461	502.31
410.685	481.31
410.908	512.31
411.132	532.31
411.355	554.31
411.578	569.31
411.802	504.31
412.025	498.31
412.249	521.31
412.472	541.31
412.695	591.31
412.919	587.31
413.142	528.31
413.365	524.31
413.589	484.31
413.812	470.31
414.035	474.31
414.258	496.31
414.482	461.31
414.705	468.31
414.928	463.31
415.151	468.31
415.374	466.31
415.597	462.31
415.821	447.31
416.044	455.31
416.267	461.31
416.49	471.31
416.713	472.31
416.936	467.31
417.159	428.31
417.382	454.31
417.605	470.31
417.828	475.31
418.051	477.31
418.274	473.31
418.497	444.31
418.72	494.31
418.943	464.31
419.166	466.31
419.389	468.31
419.611	493.31
419.834	488.31
420.057	502.31
420.28	490.31
420.503	504.31
420.726	509.31
420.948	510.31
421.171	548.31
421.394	558.31
421.617	519.31
421.839	492.31
422.062	498.31
422.285	522.31
422.507	563.31
422.73	648.31
422.953	636.31
423.175	534.31
423.398	522.31
423.621	519.31
423.843	553.31
424.066	538.31
424.288	518.31
424.511	553.31
424.733	613.31
424.956	685.31
425.178	644.31
425.401	682.31
425.623	668.31
425.846	582.31
426.068	542.31
426.291	538.31
426.513	529.31
426.735	534.31
426.958	582.31
427.18	677.31
427.402	800.31
427.625	875.31
427.847	834.31
428.069	711.31
428.292	590.31
428.514	549.31
428.736	529.31
428.958	502.31
429.181	468.31
429.403	509.31
429.625	498.31
429.847	527.31
430.069	602.31
430.292	646.31
430.514	510.31
430.736	502.31
430.958	478.31
431.18	470.31
431.402	459.31
431.624	440.31
431.846	461.31
432.068	451.31
432.29	455.31
432.512	456.31
432.734	484.31
432.956	475.31
433.178	483.31
433.4	486.31
433.622	454.31
433.844	450.31
434.066	436.31
434.287	452.31
434.509	458.31
434.731	451.31
434.953	469.31
435.175	496.31
435.397	508.31
435.618	540.31
435.84	580.31
436.062	634.31
436.284	750.31
436.505	618.31
436.727	556.31
436.949	522.31
437.17	485.31
437.392	494.31
437.614	475.31
437.835	512.31
438.057	639.31
438.278	746.31
438.5	723.31
438.721	824.31
438.943	761.31
439.165	611.31
439.386	559.31
439.608	560.31
439.829	568.31
440.05	584.31
440.272	647.31
440.493	591.31
440.715	547.31
440.936	508.31
441.158	490.31
441.379	490.31
441.6	531.31
441.822	530.31
442.043	597.31
442.264	656.31
442.486	700.31
442.707	606.31
442.928	544.31
443.149	562.31
443.371	578.31
443.592	596.31
443.813	689.31
444.034	776.31
444.255	634.31
444.476	562.31
444.698	565.31
444.919	537.31
445.14	663.31
445.361	620.31
445.582	579.31
445.803	650.31
446.024	763.31
446.245	759.31
446.466	682.31
446.687	554.31
446.908	527.31
447.129	523.31
447.35	508.31
447.571	488.31
447.792	498.31
448.013	506.31
448.234	504.31
448.455	583.31
448.675	682.31
448.896	794.31
449.117	677.31
449.338	638.31
449.559	747.31
449.779	835.31
450	667.31
450.221	560.31
450.442	528.31
450.662	499.31
450.883	487.31
451.104	532.31
451.324	492.31
451.545	485.31
451.766	470.31
451.986	432.31
452.207	448.31
452.428	426.31
452.648	429.31
452.869	439.31
453.089	455.31
453.31	449.31
453.53	436.31
453.751	442.31
453.971	445.31
454.192	473.31
454.412	452.31
454.633	464.31
454.853	450.31
455.073	431.31
455.294	477.31
455.514	542.31
455.734	503.31
455.955	447.31
456.175	412.31
456.395	411.31
456.616	421.31
456.836	420.31
457.056	414.31
457.276	401.31
457.497	422.31
457.717	418.31
457.937	413.31
458.157	437.31
458.377	448.31
458.598	456.31
458.818	520.31
459.038	605.31
459.258	606.31
459.478	509.31
459.698	471.31
459.918	442.31
460.138	446.31
460.358	446.31
460.578	429.31
460.798	451.31
461.018	460.31
461.238	451.31
461.458	442.31
461.678	431.31
461.898	415.31
462.118	442.31
462.338	470.31
462.558	451.31
462.777	445.31
462.997	461.31
463.217	454.31
463.437	483.31
463.657	459.31
463.876	473.31
464.096	493.31
464.316	470.31
464.536	481.31
464.755	510.31
464.975	479.31
465.195	558.31
465.414	634.31
465.634	545.31
465.854	493.31
466.073	480.31
466.293	465.31
466.512	453.31
466.732	435.31
466.951	438.31
467.171	452.31
467.391	433.31
467.61	457.31
467.829	470.31
468.049	465.31
468.268	464.31
468.488	446.31
468.707	441.31
468.927	448.31
469.146	437.31
469.365	420.31
469.585	434.31
469.804	420.31
470.023	455.31
470.243	455.31
470.462	450.31
470.681	472.31
470.901	492.31
471.12	448.31
471.339	459.31
471.558	445.31
471.777	439.31
471.997	435.31
472.216	478.31
472.435	538.31
472.654	506.31
472.873	464.31
473.092	448.31
473.311	441.31
473.53	458.31
473.749	460.31
473.968	533.31
474.187	619.31
474.406	656.31
474.625	547.31
474.844	464.31
475.063	463.31
475.282	453.31
475.501	456.31
475.72	459.31
475.939	474.31
476.158	471.31
476.377	472.31
476.596	478.31
476.814	463.31
477.033	473.31
477.252	476.31
477.471	488.31
477.69	466.31
477.908	498.31
478.127	505.31
478.346	499.31
478.564	487.31
478.783	470.31
479.002	491.31
479.22	521.31
479.439	508.31
479.658	526.31
479.876	564.31
480.095	550.31
480.313	592.31
480.532	559.31
480.751	566.31
480.969	590.31
481.188	685.31
481.406	734.31
481.624	636.31
481.843	592.31
482.061	556.31
482.28	550.31
482.498	548.31
482.717	530.31
482.935	541.31
483.153	541.31
483.372	541.31
483.59	544.31
483.808	542.31
484.027	510.31
484.245	536.31
484.463	521.31
484.681	555.31
484.9	559.31
485.118	525.31
485.336	518.31
485.554	554.31
485.772	539.31
485.99	554.31
486.209	558.31
486.427	551.31
486.645	572.31
486.863	616.31
487.081	589.31
487.299	546.31
487.517	580.31
487.735	574.31
487.953	574.31
488.171	575.31
488.389	573.31
488.607	564.31
488.825	555.31
489.043	587.31
489.261	569.31
489.479	587.31
489.696	602.31
489.914	580.31
490.132	607.31
490.35	592.31
490.568	602.31
490.786	617.31
491.003	622.31
491.221	640.31
491.439	649.31
491.657	669.31
491.874	630.31
492.092	679.31
492.31	669.31
492.527	662.31
492.745	679.31
492.963	654.31
493.18	694.31
493.398	679.31
493.615	664.31
493.833	704.31
494.05	680.31
494.268	680.31
494.485	674.31
494.703	676.31
494.92	701.31
495.138	670.31
495.355	698.31
495.573	669.31
495.79	688.31
496.008	703.31
496.225	666.31
496.442	682.31
496.66	696.31
496.877	693.31
497.094	671.31
497.312	697.31
497.529	697.31
497.746	683.31
497.963	696.31
498.181	721.31
498.398	759.31
498.615	726.31
498.832	755.31
499.049	764.31
499.267	785.31
499.484	785.31
499.701	793.31
499.918	805.31
500.135	829.31
500.352	850.31
500.569	872.31
500.786	903.31
501.003	867.31
501.22	858.31
501.437	802.31
501.654	814.31
501.871	814.31
