Data from 1989.PennyLincolnUp.Lamp.En5.5.200Scan.071819.P2_HRD10591_17-25-59-974.txt Node
Date: Thu Jul 18 17:25:59 EDT 2019
User: cochatt
Spectrometer: HR+D1059
Trigger mode: 1
Integration Time (sec): 1.000000E-1
Scans to average: 1
Electric dark correction enabled: true
Nonlinearity correction enabled: false
Boxcar width: 0
XAxis mode: Wavelengths
Number of Pixels in Spectrum: 2048
>>>>>Begin Spectral Data<<<<<
223.165	-26.19
223.4	-26.19
223.635	-26.19
223.869	-13.19
224.104	-12.19
224.338	-13.19
224.573	-17.19
224.808	-18.19
225.042	-11.19
225.277	15.81
225.511	-1.19
225.746	11.81
225.98	7.81
226.215	4.81
226.449	16.81
226.683	23.81
226.918	11.81
227.152	19.81
227.387	33.81
227.621	47.81
227.856	47.81
228.09	39.81
228.324	40.81
228.559	47.81
228.793	71.81
229.027	103.81
229.262	103.81
229.496	124.81
229.73	161.81
229.964	169.81
230.199	132.81
230.433	132.81
230.667	131.81
230.901	132.81
231.136	111.81
231.37	116.81
231.604	102.81
231.838	125.81
232.072	129.81
232.306	115.81
232.541	120.81
232.775	106.81
233.009	129.81
233.243	125.81
233.477	128.81
233.711	116.81
233.945	119.81
234.179	101.81
234.413	113.81
234.647	131.81
234.881	123.81
235.115	117.81
235.349	119.81
235.583	137.81
235.817	124.81
236.051	129.81
236.285	135.81
236.519	127.81
236.753	130.81
236.987	159.81
237.221	205.81
237.455	264.81
237.689	209.81
237.922	167.81
238.156	149.81
238.39	128.81
238.624	139.81
238.858	135.81
239.091	127.81
239.325	134.81
239.559	130.81
239.793	136.81
240.027	130.81
240.26	156.81
240.494	175.81
240.728	170.81
240.961	168.81
241.195	139.81
241.429	160.81
241.662	147.81
241.896	144.81
242.13	145.81
242.363	145.81
242.597	151.81
242.83	163.81
243.064	156.81
243.298	146.81
243.531	142.81
243.765	153.81
243.998	143.81
244.232	146.81
244.465	159.81
244.699	153.81
244.932	147.81
245.166	164.81
245.399	136.81
245.633	156.81
245.866	149.81
246.099	162.81
246.333	165.81
246.566	160.81
246.8	176.81
247.033	181.81
247.266	163.81
247.5	175.81
247.733	184.81
247.966	180.81
248.2	183.81
248.433	187.81
248.666	182.81
248.899	187.81
249.133	212.81
249.366	213.81
249.599	224.81
249.832	220.81
250.066	209.81
250.299	231.81
250.532	220.81
250.765	236.81
250.998	262.81
251.231	270.81
251.465	251.81
251.698	221.81
251.931	232.81
252.164	223.81
252.397	217.81
252.63	225.81
252.863	228.81
253.096	241.81
253.329	277.81
253.562	271.81
253.795	252.81
254.028	258.81
254.261	241.81
254.494	262.81
254.727	299.81
254.96	320.81
255.193	323.81
255.426	298.81
255.659	271.81
255.892	280.81
256.124	291.81
256.357	287.81
256.59	270.81
256.823	265.81
257.056	267.81
257.289	258.81
257.521	245.81
257.754	239.81
257.987	240.81
258.22	236.81
258.452	241.81
258.685	234.81
258.918	220.81
259.151	253.81
259.383	250.81
259.616	243.81
259.849	228.81
260.081	273.81
260.314	276.81
260.547	319.81
260.779	274.81
261.012	281.81
261.244	253.81
261.477	254.81
261.71	263.81
261.942	267.81
262.175	278.81
262.407	281.81
262.64	242.81
262.872	259.81
263.105	236.81
263.337	259.81
263.57	247.81
263.802	248.81
264.035	228.81
264.267	235.81
264.499	240.81
264.732	245.81
264.964	240.81
265.197	227.81
265.429	261.81
265.661	236.81
265.894	254.81
266.126	246.81
266.358	228.81
266.591	232.81
266.823	271.81
267.055	249.81
267.287	255.81
267.52	255.81
267.752	245.81
267.984	276.81
268.216	275.81
268.448	262.81
268.681	264.81
268.913	291.81
269.145	307.81
269.377	314.81
269.609	322.81
269.841	308.81
270.073	324.81
270.306	312.81
270.538	355.81
270.77	375.81
271.002	369.81
271.234	354.81
271.466	344.81
271.698	361.81
271.93	373.81
272.162	359.81
272.394	364.81
272.626	354.81
272.858	324.81
273.09	324.81
273.322	311.81
273.553	288.81
273.785	313.81
274.017	304.81
274.249	295.81
274.481	311.81
274.713	307.81
274.945	315.81
275.176	321.81
275.408	312.81
275.64	298.81
275.872	306.81
276.104	292.81
276.335	309.81
276.567	329.81
276.799	321.81
277.031	340.81
277.262	342.81
277.494	373.81
277.726	319.81
277.957	332.81
278.189	313.81
278.421	300.81
278.652	321.81
278.884	312.81
279.115	321.81
279.347	297.81
279.579	288.81
279.81	299.81
280.042	312.81
280.273	308.81
280.505	311.81
280.736	295.81
280.968	291.81
281.199	292.81
281.431	311.81
281.662	307.81
281.894	302.81
282.125	311.81
282.356	340.81
282.588	360.81
282.819	366.81
283.051	325.81
283.282	299.81
283.513	308.81
283.745	291.81
283.976	299.81
284.207	316.81
284.439	304.81
284.67	328.81
284.901	310.81
285.132	311.81
285.364	317.81
285.595	304.81
285.826	309.81
286.057	303.81
286.288	305.81
286.52	328.81
286.751	319.81
286.982	333.81
287.213	315.81
287.444	331.81
287.675	332.81
287.906	327.81
288.138	323.81
288.369	330.81
288.6	331.81
288.831	319.81
289.062	329.81
289.293	326.81
289.524	347.81
289.755	330.81
289.986	327.81
290.217	306.81
290.448	319.81
290.679	329.81
290.91	319.81
291.141	318.81
291.371	311.81
291.602	320.81
291.833	333.81
292.064	323.81
292.295	333.81
292.526	331.81
292.757	336.81
292.987	326.81
293.218	320.81
293.449	329.81
293.68	298.81
293.91	315.81
294.141	321.81
294.372	337.81
294.603	326.81
294.833	332.81
295.064	315.81
295.295	340.81
295.525	346.81
295.756	332.81
295.987	322.81
296.217	374.81
296.448	375.81
296.679	342.81
296.909	308.81
297.14	321.81
297.37	330.81
297.601	319.81
297.831	332.81
298.062	319.81
298.292	325.81
298.523	331.81
298.753	311.81
298.984	337.81
299.214	323.81
299.445	345.81
299.675	351.81
299.905	347.81
300.136	320.81
300.366	353.81
300.597	349.81
300.827	332.81
301.057	342.81
301.288	361.81
301.518	360.81
301.748	356.81
301.979	363.81
302.209	352.81
302.439	357.81
302.669	354.81
302.9	354.81
303.13	338.81
303.36	361.81
303.59	364.81
303.82	361.81
304.051	376.81
304.281	367.81
304.511	357.81
304.741	362.81
304.971	338.81
305.201	366.81
305.431	359.81
305.661	346.81
305.891	355.81
306.121	361.81
306.352	375.81
306.582	369.81
306.812	378.81
307.042	356.81
307.272	369.81
307.502	364.81
307.731	383.81
307.961	371.81
308.191	351.81
308.421	371.81
308.651	383.81
308.881	362.81
309.111	383.81
309.341	394.81
309.571	392.81
309.8	402.81
310.03	415.81
310.26	414.81
310.49	433.81
310.72	428.81
310.949	461.81
311.179	445.81
311.409	435.81
311.639	438.81
311.868	411.81
312.098	439.81
312.328	424.81
312.557	465.81
312.787	452.81
313.017	467.81
313.246	419.81
313.476	424.81
313.706	423.81
313.935	425.81
314.165	449.81
314.394	433.81
314.624	438.81
314.853	428.81
315.083	428.81
315.312	439.81
315.542	435.81
315.771	419.81
316.001	437.81
316.23	431.81
316.46	407.81
316.689	418.81
316.919	421.81
317.148	461.81
317.377	433.81
317.607	435.81
317.836	444.81
318.065	429.81
318.295	422.81
318.524	414.81
318.753	422.81
318.983	436.81
319.212	420.81
319.441	419.81
319.67	435.81
319.9	441.81
320.129	424.81
320.358	433.81
320.587	421.81
320.816	454.81
321.046	461.81
321.275	460.81
321.504	423.81
321.733	463.81
321.962	473.81
322.191	477.81
322.42	503.81
322.649	489.81
322.878	508.81
323.108	520.81
323.337	543.81
323.566	601.81
323.795	643.81
324.024	697.81
324.253	826.81
324.482	1175.81
324.71	1855.81
324.939	2667.81
325.168	2331.81
325.397	1181.81
325.626	806.81
325.855	623.81
326.084	626.81
326.313	595.81
326.542	604.81
326.77	641.81
326.999	781.81
327.228	1086.81
327.457	1660.81
327.686	2022.81
327.914	1358.81
328.143	883.81
328.372	763.81
328.6	736.81
328.829	667.81
329.058	671.81
329.287	702.81
329.515	666.81
329.744	635.81
329.972	610.81
330.201	641.81
330.43	726.81
330.658	738.81
330.887	733.81
331.115	727.81
331.344	623.81
331.572	582.81
331.801	583.81
332.03	553.81
332.258	519.81
332.486	504.81
332.715	525.81
332.943	529.81
333.172	511.81
333.4	511.81
333.629	525.81
333.857	553.81
334.085	593.81
334.314	604.81
334.542	636.81
334.771	701.81
334.999	609.81
335.227	547.81
335.455	519.81
335.684	515.81
335.912	522.81
336.14	482.81
336.369	499.81
336.597	504.81
336.825	498.81
337.053	488.81
337.281	473.81
337.51	481.81
337.738	484.81
337.966	487.81
338.194	495.81
338.422	485.81
338.65	485.81
338.878	474.81
339.106	453.81
339.334	467.81
339.562	473.81
339.79	481.81
340.018	476.81
340.246	455.81
340.474	443.81
340.702	474.81
340.93	461.81
341.158	475.81
341.386	464.81
341.614	465.81
341.842	460.81
342.07	460.81
342.298	449.81
342.526	457.81
342.754	444.81
342.981	447.81
343.209	449.81
343.437	444.81
343.665	445.81
343.893	465.81
344.12	476.81
344.348	469.81
344.576	456.81
344.804	500.81
345.031	478.81
345.259	484.81
345.487	477.81
345.714	472.81
345.942	470.81
346.17	444.81
346.397	452.81
346.625	454.81
346.853	453.81
347.08	472.81
347.308	451.81
347.535	474.81
347.763	484.81
347.99	474.81
348.218	467.81
348.445	480.81
348.673	476.81
348.9	456.81
349.128	443.81
349.355	423.81
349.583	446.81
349.81	438.81
350.037	451.81
350.265	438.81
350.492	422.81
350.72	449.81
350.947	445.81
351.174	447.81
351.402	473.81
351.629	458.81
351.856	462.81
352.083	466.81
352.311	453.81
352.538	453.81
352.765	469.81
352.992	457.81
353.22	464.81
353.447	445.81
353.674	447.81
353.901	441.81
354.128	443.81
354.355	438.81
354.583	426.81
354.81	410.81
355.037	424.81
355.264	415.81
355.491	416.81
355.718	409.81
355.945	393.81
356.172	409.81
356.399	397.81
356.626	423.81
356.853	392.81
357.08	399.81
357.307	407.81
357.534	401.81
357.761	412.81
357.988	429.81
358.215	436.81
358.441	400.81
358.668	409.81
358.895	411.81
359.122	420.81
359.349	430.81
359.576	453.81
359.802	460.81
360.029	476.81
360.256	498.81
360.483	499.81
360.709	478.81
360.936	472.81
361.163	437.81
361.39	445.81
361.616	421.81
361.843	432.81
362.07	450.81
362.296	444.81
362.523	464.81
362.749	443.81
362.976	430.81
363.203	432.81
363.429	439.81
363.656	403.81
363.882	424.81
364.109	415.81
364.335	392.81
364.562	411.81
364.788	409.81
365.015	417.81
365.241	436.81
365.468	421.81
365.694	418.81
365.92	426.81
366.147	419.81
366.373	425.81
366.599	416.81
366.826	410.81
367.052	423.81
367.278	419.81
367.505	402.81
367.731	400.81
367.957	409.81
368.184	411.81
368.41	430.81
368.636	451.81
368.862	417.81
369.089	416.81
369.315	405.81
369.541	410.81
369.767	404.81
369.993	403.81
370.219	407.81
370.445	388.81
370.672	414.81
370.898	405.81
371.124	405.81
371.35	392.81
371.576	415.81
371.802	411.81
372.028	393.81
372.254	389.81
372.48	403.81
372.706	398.81
372.932	396.81
373.158	375.81
373.384	407.81
373.61	415.81
373.835	415.81
374.061	393.81
374.287	402.81
374.513	405.81
374.739	402.81
374.965	420.81
375.191	408.81
375.416	403.81
375.642	403.81
375.868	419.81
376.094	402.81
376.319	403.81
376.545	398.81
376.771	386.81
376.997	405.81
377.222	402.81
377.448	420.81
377.674	397.81
377.899	409.81
378.125	367.81
378.35	395.81
378.576	388.81
378.802	380.81
379.027	385.81
379.253	389.81
379.478	396.81
379.704	406.81
379.929	401.81
380.155	409.81
380.38	392.81
380.606	388.81
380.831	389.81
381.057	407.81
381.282	388.81
381.507	386.81
381.733	395.81
381.958	403.81
382.184	378.81
382.409	394.81
382.634	401.81
382.86	420.81
383.085	406.81
383.31	392.81
383.535	425.81
383.761	407.81
383.986	422.81
384.211	411.81
384.436	411.81
384.662	415.81
384.887	411.81
385.112	421.81
385.337	412.81
385.562	417.81
385.787	412.81
386.013	427.81
386.238	425.81
386.463	432.81
386.688	405.81
386.913	417.81
387.138	416.81
387.363	420.81
387.588	418.81
387.813	408.81
388.038	414.81
388.263	415.81
388.488	424.81
388.713	413.81
388.938	427.81
389.163	432.81
389.387	433.81
389.612	416.81
389.837	411.81
390.062	445.81
390.287	429.81
390.512	424.81
390.736	417.81
390.961	412.81
391.186	407.81
391.411	425.81
391.636	432.81
391.86	424.81
392.085	421.81
392.31	416.81
392.534	436.81
392.759	428.81
392.984	432.81
393.208	438.81
393.433	428.81
393.658	438.81
393.882	428.81
394.107	422.81
394.331	432.81
394.556	378.81
394.78	422.81
395.005	431.81
395.229	419.81
395.454	430.81
395.678	461.81
395.903	447.81
396.127	462.81
396.352	477.81
396.576	472.81
396.801	439.81
397.025	427.81
397.249	428.81
397.474	425.81
397.698	435.81
397.922	457.81
398.147	469.81
398.371	463.81
398.595	465.81
398.82	455.81
399.044	462.81
399.268	513.81
399.492	502.81
399.717	542.81
399.941	550.81
400.165	583.81
400.389	597.81
400.613	533.81
400.837	476.81
401.062	482.81
401.286	493.81
401.51	479.81
401.734	467.81
401.958	487.81
402.182	483.81
402.406	481.81
402.63	485.81
402.854	487.81
403.078	483.81
403.302	505.81
403.526	495.81
403.75	506.81
403.974	492.81
404.198	508.81
404.422	504.81
404.645	528.81
404.869	515.81
405.093	547.81
405.317	596.81
405.541	618.81
405.765	584.81
405.988	539.81
406.212	544.81
406.436	556.81
406.66	576.81
406.883	554.81
407.107	575.81
407.331	612.81
407.555	679.81
407.778	678.81
408.002	599.81
408.226	566.81
408.449	579.81
408.673	548.81
408.896	569.81
409.12	605.81
409.344	582.81
409.567	535.81
409.791	517.81
410.014	517.81
410.238	484.81
410.461	500.81
410.685	510.81
410.908	525.81
411.132	532.81
411.355	560.81
411.578	584.81
411.802	519.81
412.025	499.81
412.249	529.81
412.472	533.81
412.695	593.81
412.919	586.81
413.142	559.81
413.365	484.81
413.589	481.81
413.812	474.81
414.035	466.81
414.258	475.81
414.482	484.81
414.705	460.81
414.928	466.81
415.151	472.81
415.374	466.81
415.597	477.81
415.821	457.81
416.044	468.81
416.267	492.81
416.49	472.81
416.713	449.81
416.936	442.81
417.159	455.81
417.382	485.81
417.605	482.81
417.828	484.81
418.051	511.81
418.274	481.81
418.497	468.81
418.72	473.81
418.943	465.81
419.166	500.81
419.389	488.81
419.611	513.81
419.834	495.81
420.057	503.81
420.28	532.81
420.503	529.81
420.726	487.81
420.948	526.81
421.171	575.81
421.394	593.81
421.617	528.81
421.839	492.81
422.062	501.81
422.285	515.81
422.507	556.81
422.73	650.81
422.953	639.81
423.175	550.81
423.398	527.81
423.621	521.81
423.843	541.81
424.066	545.81
424.288	522.81
424.511	549.81
424.733	622.81
424.956	711.81
425.178	679.81
425.401	677.81
425.623	676.81
425.846	579.81
426.068	540.81
426.291	526.81
426.513	543.81
426.735	557.81
426.958	595.81
427.18	686.81
427.402	808.81
427.625	913.81
427.847	806.81
428.069	714.81
428.292	637.81
428.514	561.81
428.736	514.81
428.958	495.81
429.181	516.81
429.403	486.81
429.625	491.81
429.847	525.81
430.069	607.81
430.292	595.81
430.514	545.81
430.736	515.81
430.958	496.81
431.18	480.81
431.402	455.81
431.624	453.81
431.846	455.81
432.068	465.81
432.29	454.81
432.512	480.81
432.734	480.81
432.956	455.81
433.178	453.81
433.4	494.81
433.622	485.81
433.844	455.81
434.066	473.81
434.287	500.81
434.509	462.81
434.731	484.81
434.953	483.81
435.175	486.81
435.397	530.81
435.618	538.81
435.84	595.81
436.062	683.81
436.284	775.81
436.505	643.81
436.727	564.81
436.949	531.81
437.17	483.81
437.392	505.81
437.614	519.81
437.835	564.81
438.057	656.81
438.278	776.81
438.5	746.81
438.721	842.81
438.943	804.81
439.165	625.81
439.386	587.81
439.608	551.81
439.829	563.81
440.05	576.81
440.272	660.81
440.493	596.81
440.715	530.81
440.936	505.81
441.158	513.81
441.379	504.81
441.6	505.81
441.822	526.81
442.043	563.81
442.264	645.81
442.486	691.81
442.707	608.81
442.928	566.81
443.149	569.81
443.371	608.81
443.592	610.81
443.813	702.81
444.034	778.81
444.255	626.81
444.476	548.81
444.698	553.81
444.919	533.81
445.14	652.81
445.361	625.81
445.582	578.81
445.803	637.81
446.024	737.81
446.245	793.81
446.466	703.81
446.687	601.81
446.908	553.81
447.129	503.81
447.35	503.81
447.571	498.81
447.792	497.81
448.013	492.81
448.234	525.81
448.455	588.81
448.675	680.81
448.896	819.81
449.117	679.81
449.338	667.81
449.559	772.81
449.779	861.81
450	693.81
450.221	578.81
450.442	505.81
450.662	519.81
450.883	491.81
451.104	490.81
451.324	531.81
451.545	479.81
451.766	455.81
451.986	437.81
452.207	452.81
452.428	437.81
452.648	451.81
452.869	456.81
453.089	461.81
453.31	480.81
453.53	451.81
453.751	449.81
453.971	435.81
454.192	470.81
454.412	458.81
454.633	429.81
454.853	420.81
455.073	414.81
455.294	467.81
455.514	533.81
455.734	543.81
455.955	448.81
456.175	399.81
456.395	407.81
456.616	418.81
456.836	421.81
457.056	407.81
457.276	413.81
457.497	407.81
457.717	419.81
457.937	415.81
458.157	432.81
458.377	426.81
458.598	455.81
458.818	513.81
459.038	605.81
459.258	653.81
459.478	531.81
459.698	465.81
459.918	462.81
460.138	453.81
460.358	458.81
460.578	445.81
460.798	470.81
461.018	455.81
461.238	451.81
461.458	468.81
461.678	442.81
461.898	466.81
462.118	453.81
462.338	474.81
462.558	474.81
462.777	477.81
462.997	510.81
463.217	465.81
463.437	473.81
463.657	467.81
463.876	453.81
464.096	495.81
464.316	473.81
464.536	492.81
464.755	511.81
464.975	515.81
465.195	548.81
465.414	632.81
465.634	540.81
465.854	499.81
466.073	463.81
466.293	447.81
466.512	459.81
466.732	439.81
466.951	421.81
467.171	435.81
467.391	435.81
467.61	470.81
467.829	443.81
468.049	452.81
468.268	458.81
468.488	465.81
468.707	426.81
468.927	409.81
469.146	429.81
469.365	435.81
469.585	442.81
469.804	448.81
470.023	471.81
470.243	455.81
470.462	457.81
470.681	500.81
470.901	483.81
471.12	467.81
471.339	452.81
471.558	463.81
471.777	455.81
471.997	447.81
472.216	484.81
472.435	549.81
472.654	516.81
472.873	474.81
473.092	465.81
473.311	456.81
473.53	476.81
473.749	475.81
473.968	507.81
474.187	646.81
474.406	647.81
474.625	523.81
474.844	472.81
475.063	464.81
475.282	455.81
475.501	468.81
475.72	464.81
475.939	480.81
476.158	486.81
476.377	449.81
476.596	446.81
476.814	474.81
477.033	470.81
477.252	487.81
477.471	475.81
477.69	483.81
477.908	492.81
478.127	499.81
478.346	490.81
478.564	491.81
478.783	501.81
479.002	505.81
479.22	512.81
479.439	538.81
479.658	522.81
479.876	545.81
480.095	545.81
480.313	589.81
480.532	570.81
480.751	563.81
480.969	589.81
481.188	672.81
481.406	765.81
481.624	636.81
481.843	570.81
482.061	576.81
482.28	551.81
482.498	543.81
482.717	511.81
482.935	528.81
483.153	538.81
483.372	532.81
483.59	521.81
483.808	527.81
484.027	527.81
484.245	556.81
484.463	550.81
484.681	553.81
484.9	547.81
485.118	538.81
485.336	543.81
485.554	572.81
485.772	547.81
485.99	559.81
486.209	565.81
486.427	580.81
486.645	587.81
486.863	594.81
487.081	593.81
487.299	566.81
487.517	586.81
487.735	580.81
487.953	583.81
488.171	573.81
488.389	565.81
488.607	606.81
488.825	588.81
489.043	552.81
489.261	579.81
489.479	585.81
489.696	598.81
489.914	610.81
490.132	586.81
490.35	595.81
490.568	623.81
490.786	629.81
491.003	634.81
491.221	648.81
491.439	663.81
491.657	651.81
491.874	691.81
492.092	664.81
492.31	677.81
492.527	683.81
492.745	684.81
492.963	689.81
493.18	697.81
493.398	707.81
493.615	677.81
493.833	692.81
494.05	695.81
494.268	701.81
494.485	674.81
494.703	694.81
494.92	700.81
495.138	696.81
495.355	691.81
495.573	697.81
495.79	682.81
496.008	686.81
496.225	689.81
496.442	684.81
496.66	692.81
496.877	683.81
497.094	722.81
497.312	704.81
497.529	697.81
497.746	693.81
497.963	711.81
498.181	727.81
498.398	736.81
498.615	742.81
498.832	768.81
499.049	736.81
499.267	759.81
499.484	783.81
499.701	808.81
499.918	821.81
500.135	866.81
500.352	872.81
500.569	916.81
500.786	896.81
501.003	876.81
501.22	838.81
501.437	851.81
501.654	861.81
501.871	851.81
