Data from 1989.PennyLincolnUp.Lamp.En5.5.200Scan.071819.P2_HRD10591_17-24-04-974.txt Node
Date: Thu Jul 18 17:24:04 EDT 2019
User: cochatt
Spectrometer: HR+D1059
Trigger mode: 1
Integration Time (sec): 1.000000E-1
Scans to average: 1
Electric dark correction enabled: true
Nonlinearity correction enabled: false
Boxcar width: 0
XAxis mode: Wavelengths
Number of Pixels in Spectrum: 2048
>>>>>Begin Spectral Data<<<<<
223.165	-10.62
223.4	-10.62
223.635	-10.62
223.869	-16.62
224.104	-28.62
224.338	-11.62
224.573	-13.62
224.808	-16.62
225.042	-10.62
225.277	-4.62
225.511	-3.62
225.746	8.38
225.98	7.38
226.215	16.38
226.449	5.38
226.683	17.38
226.918	33.38
227.152	28.38
227.387	32.38
227.621	27.38
227.856	38.38
228.09	49.38
228.324	62.38
228.559	71.38
228.793	70.38
229.027	95.38
229.262	123.38
229.496	126.38
229.73	137.38
229.964	147.38
230.199	137.38
230.433	117.38
230.667	114.38
230.901	103.38
231.136	110.38
231.37	107.38
231.604	115.38
231.838	114.38
232.072	120.38
232.306	122.38
232.541	119.38
232.775	110.38
233.009	117.38
233.243	107.38
233.477	117.38
233.711	133.38
233.945	116.38
234.179	121.38
234.413	118.38
234.647	130.38
234.881	124.38
235.115	139.38
235.349	126.38
235.583	121.38
235.817	117.38
236.051	141.38
236.285	117.38
236.519	115.38
236.753	141.38
236.987	142.38
237.221	178.38
237.455	234.38
237.689	199.38
237.922	168.38
238.156	129.38
238.39	140.38
238.624	126.38
238.858	115.38
239.091	121.38
239.325	126.38
239.559	120.38
239.793	131.38
240.027	144.38
240.26	145.38
240.494	158.38
240.728	152.38
240.961	162.38
241.195	155.38
241.429	134.38
241.662	152.38
241.896	123.38
242.13	143.38
242.363	153.38
242.597	141.38
242.83	130.38
243.064	141.38
243.298	130.38
243.531	142.38
243.765	151.38
243.998	129.38
244.232	152.38
244.465	146.38
244.699	162.38
244.932	150.38
245.166	150.38
245.399	148.38
245.633	155.38
245.866	154.38
246.099	168.38
246.333	165.38
246.566	142.38
246.8	143.38
247.033	157.38
247.266	180.38
247.5	191.38
247.733	186.38
247.966	162.38
248.2	185.38
248.433	174.38
248.666	201.38
248.899	200.38
249.133	216.38
249.366	207.38
249.599	206.38
249.832	201.38
250.066	194.38
250.299	190.38
250.532	194.38
250.765	219.38
250.998	223.38
251.231	248.38
251.465	228.38
251.698	223.38
251.931	207.38
252.164	204.38
252.397	211.38
252.63	197.38
252.863	211.38
253.096	246.38
253.329	238.38
253.562	255.38
253.795	245.38
254.028	235.38
254.261	227.38
254.494	242.38
254.727	266.38
254.96	296.38
255.193	284.38
255.426	251.38
255.659	247.38
255.892	243.38
256.124	228.38
256.357	226.38
256.59	222.38
256.823	217.38
257.056	229.38
257.289	229.38
257.521	216.38
257.754	242.38
257.987	218.38
258.22	226.38
258.452	212.38
258.685	218.38
258.918	232.38
259.151	253.38
259.383	230.38
259.616	241.38
259.849	245.38
260.081	251.38
260.314	265.38
260.547	278.38
260.779	264.38
261.012	266.38
261.244	253.38
261.477	243.38
261.71	249.38
261.942	230.38
262.175	247.38
262.407	254.38
262.64	220.38
262.872	234.38
263.105	235.38
263.337	247.38
263.57	212.38
263.802	227.38
264.035	202.38
264.267	244.38
264.499	219.38
264.732	220.38
264.964	245.38
265.197	226.38
265.429	230.38
265.661	237.38
265.894	226.38
266.126	232.38
266.358	241.38
266.591	229.38
266.823	249.38
267.055	244.38
267.287	245.38
267.52	243.38
267.752	233.38
267.984	244.38
268.216	232.38
268.448	257.38
268.681	273.38
268.913	257.38
269.145	262.38
269.377	321.38
269.609	299.38
269.841	307.38
270.073	298.38
270.306	305.38
270.538	328.38
270.77	337.38
271.002	330.38
271.234	317.38
271.466	329.38
271.698	348.38
271.93	356.38
272.162	340.38
272.394	341.38
272.626	339.38
272.858	322.38
273.09	299.38
273.322	298.38
273.553	285.38
273.785	289.38
274.017	280.38
274.249	277.38
274.481	272.38
274.713	270.38
274.945	295.38
275.176	285.38
275.408	287.38
275.64	290.38
275.872	285.38
276.104	295.38
276.335	275.38
276.567	282.38
276.799	319.38
277.031	329.38
277.262	340.38
277.494	349.38
277.726	331.38
277.957	300.38
278.189	287.38
278.421	306.38
278.652	272.38
278.884	294.38
279.115	281.38
279.347	271.38
279.579	290.38
279.81	282.38
280.042	286.38
280.273	284.38
280.505	276.38
280.736	277.38
280.968	281.38
281.199	278.38
281.431	296.38
281.662	281.38
281.894	283.38
282.125	299.38
282.356	319.38
282.588	331.38
282.819	334.38
283.051	302.38
283.282	302.38
283.513	293.38
283.745	294.38
283.976	291.38
284.207	316.38
284.439	301.38
284.67	288.38
284.901	302.38
285.132	297.38
285.364	299.38
285.595	277.38
285.826	299.38
286.057	314.38
286.288	290.38
286.52	300.38
286.751	313.38
286.982	282.38
287.213	300.38
287.444	312.38
287.675	313.38
287.906	315.38
288.138	322.38
288.369	329.38
288.6	330.38
288.831	318.38
289.062	322.38
289.293	316.38
289.524	309.38
289.755	316.38
289.986	306.38
290.217	314.38
290.448	309.38
290.679	305.38
290.91	296.38
291.141	309.38
291.371	313.38
291.602	314.38
291.833	290.38
292.064	307.38
292.295	311.38
292.526	319.38
292.757	308.38
292.987	299.38
293.218	300.38
293.449	307.38
293.68	297.38
293.91	299.38
294.141	302.38
294.372	318.38
294.603	317.38
294.833	308.38
295.064	307.38
295.295	317.38
295.525	306.38
295.756	314.38
295.987	327.38
296.217	330.38
296.448	364.38
296.679	329.38
296.909	320.38
297.14	323.38
297.37	310.38
297.601	301.38
297.831	335.38
298.062	325.38
298.292	328.38
298.523	312.38
298.753	296.38
298.984	341.38
299.214	319.38
299.445	332.38
299.675	341.38
299.905	308.38
300.136	315.38
300.366	320.38
300.597	329.38
300.827	318.38
301.057	332.38
301.288	343.38
301.518	353.38
301.748	334.38
301.979	346.38
302.209	344.38
302.439	356.38
302.669	351.38
302.9	341.38
303.13	354.38
303.36	344.38
303.59	354.38
303.82	357.38
304.051	357.38
304.281	357.38
304.511	354.38
304.741	357.38
304.971	348.38
305.201	341.38
305.431	339.38
305.661	353.38
305.891	345.38
306.121	339.38
306.352	345.38
306.582	337.38
306.812	331.38
307.042	349.38
307.272	357.38
307.502	348.38
307.731	355.38
307.961	356.38
308.191	351.38
308.421	345.38
308.651	352.38
308.881	353.38
309.111	366.38
309.341	377.38
309.571	383.38
309.8	367.38
310.03	377.38
310.26	396.38
310.49	386.38
310.72	397.38
310.949	417.38
311.179	431.38
311.409	396.38
311.639	393.38
311.868	391.38
312.098	394.38
312.328	414.38
312.557	436.38
312.787	429.38
313.017	438.38
313.246	411.38
313.476	399.38
313.706	400.38
313.935	402.38
314.165	415.38
314.394	409.38
314.624	434.38
314.853	424.38
315.083	406.38
315.312	412.38
315.542	404.38
315.771	403.38
316.001	400.38
316.23	383.38
316.46	401.38
316.689	397.38
316.919	391.38
317.148	433.38
317.377	405.38
317.607	382.38
317.836	406.38
318.065	402.38
318.295	420.38
318.524	387.38
318.753	404.38
318.983	391.38
319.212	407.38
319.441	406.38
319.67	419.38
319.9	402.38
320.129	427.38
320.358	419.38
320.587	408.38
320.816	417.38
321.046	423.38
321.275	419.38
321.504	440.38
321.733	411.38
321.962	419.38
322.191	451.38
322.42	434.38
322.649	483.38
322.878	483.38
323.108	508.38
323.337	526.38
323.566	536.38
323.795	585.38
324.024	638.38
324.253	776.38
324.482	1104.38
324.71	1667.38
324.939	2367.38
325.168	2069.38
325.397	1098.38
325.626	707.38
325.855	610.38
326.084	546.38
326.313	557.38
326.542	558.38
326.77	601.38
326.999	698.38
327.228	977.38
327.457	1460.38
327.686	1815.38
327.914	1179.38
328.143	781.38
328.372	683.38
328.6	622.38
328.829	606.38
329.058	632.38
329.287	612.38
329.515	569.38
329.744	547.38
329.972	519.38
330.201	527.38
330.43	557.38
330.658	603.38
330.887	636.38
331.115	621.38
331.344	556.38
331.572	526.38
331.801	502.38
332.03	486.38
332.258	491.38
332.486	471.38
332.715	466.38
332.943	453.38
333.172	459.38
333.4	453.38
333.629	470.38
333.857	474.38
334.085	484.38
334.314	469.38
334.542	479.38
334.771	472.38
334.999	480.38
335.227	468.38
335.455	477.38
335.684	458.38
335.912	454.38
336.14	479.38
336.369	464.38
336.597	474.38
336.825	486.38
337.053	469.38
337.281	441.38
337.51	438.38
337.738	452.38
337.966	446.38
338.194	447.38
338.422	457.38
338.65	453.38
338.878	453.38
339.106	426.38
339.334	437.38
339.562	445.38
339.79	434.38
340.018	454.38
340.246	437.38
340.474	457.38
340.702	445.38
340.93	442.38
341.158	455.38
341.386	454.38
341.614	457.38
341.842	453.38
342.07	421.38
342.298	442.38
342.526	459.38
342.754	430.38
342.981	444.38
343.209	428.38
343.437	431.38
343.665	447.38
343.893	461.38
344.12	441.38
344.348	447.38
344.576	431.38
344.804	449.38
345.031	439.38
345.259	447.38
345.487	465.38
345.714	453.38
345.942	441.38
346.17	442.38
346.397	428.38
346.625	433.38
346.853	409.38
347.08	413.38
347.308	439.38
347.535	433.38
347.763	441.38
347.99	453.38
348.218	445.38
348.445	438.38
348.673	448.38
348.9	434.38
349.128	416.38
349.355	434.38
349.583	412.38
349.81	403.38
350.037	428.38
350.265	421.38
350.492	410.38
350.72	421.38
350.947	427.38
351.174	425.38
351.402	459.38
351.629	444.38
351.856	454.38
352.083	457.38
352.311	446.38
352.538	452.38
352.765	439.38
352.992	442.38
353.22	429.38
353.447	406.38
353.674	429.38
353.901	406.38
354.128	407.38
354.355	413.38
354.583	403.38
354.81	408.38
355.037	419.38
355.264	395.38
355.491	392.38
355.718	398.38
355.945	391.38
356.172	382.38
356.399	400.38
356.626	399.38
356.853	405.38
357.08	384.38
357.307	390.38
357.534	392.38
357.761	378.38
357.988	396.38
358.215	374.38
358.441	381.38
358.668	385.38
358.895	398.38
359.122	397.38
359.349	410.38
359.576	421.38
359.802	446.38
360.029	477.38
360.256	475.38
360.483	466.38
360.709	440.38
360.936	429.38
361.163	407.38
361.39	428.38
361.616	415.38
361.843	416.38
362.07	426.38
362.296	420.38
362.523	419.38
362.749	403.38
362.976	405.38
363.203	396.38
363.429	405.38
363.656	405.38
363.882	425.38
364.109	414.38
364.335	412.38
364.562	397.38
364.788	396.38
365.015	408.38
365.241	408.38
365.468	412.38
365.694	428.38
365.92	401.38
366.147	395.38
366.373	382.38
366.599	388.38
366.826	403.38
367.052	405.38
367.278	381.38
367.505	410.38
367.731	397.38
367.957	395.38
368.184	398.38
368.41	414.38
368.636	410.38
368.862	439.38
369.089	429.38
369.315	389.38
369.541	384.38
369.767	371.38
369.993	414.38
370.219	395.38
370.445	395.38
370.672	389.38
370.898	381.38
371.124	388.38
371.35	392.38
371.576	373.38
371.802	393.38
372.028	383.38
372.254	391.38
372.48	392.38
372.706	369.38
372.932	391.38
373.158	407.38
373.384	395.38
373.61	377.38
373.835	394.38
374.061	390.38
374.287	402.38
374.513	375.38
374.739	392.38
374.965	406.38
375.191	407.38
375.416	386.38
375.642	411.38
375.868	387.38
376.094	399.38
376.319	391.38
376.545	390.38
376.771	383.38
376.997	390.38
377.222	380.38
377.448	400.38
377.674	390.38
377.899	404.38
378.125	381.38
378.35	406.38
378.576	369.38
378.802	365.38
379.027	385.38
379.253	409.38
379.478	389.38
379.704	367.38
379.929	400.38
380.155	387.38
380.38	401.38
380.606	391.38
380.831	380.38
381.057	390.38
381.282	385.38
381.507	378.38
381.733	379.38
381.958	371.38
382.184	395.38
382.409	426.38
382.634	423.38
382.86	400.38
383.085	401.38
383.31	400.38
383.535	379.38
383.761	400.38
383.986	393.38
384.211	395.38
384.436	413.38
384.662	397.38
384.887	400.38
385.112	421.38
385.337	411.38
385.562	407.38
385.787	413.38
386.013	428.38
386.238	420.38
386.463	421.38
386.688	392.38
386.913	413.38
387.138	401.38
387.363	413.38
387.588	428.38
387.813	396.38
388.038	420.38
388.263	406.38
388.488	391.38
388.713	423.38
388.938	403.38
389.163	415.38
389.387	417.38
389.612	413.38
389.837	418.38
390.062	409.38
390.287	420.38
390.512	396.38
390.736	405.38
390.961	395.38
391.186	443.38
391.411	408.38
391.636	400.38
391.86	400.38
392.085	404.38
392.31	409.38
392.534	421.38
392.759	413.38
392.984	422.38
393.208	417.38
393.433	411.38
393.658	390.38
393.882	403.38
394.107	411.38
394.331	400.38
394.556	410.38
394.78	413.38
395.005	437.38
395.229	394.38
395.454	411.38
395.678	425.38
395.903	430.38
396.127	434.38
396.352	462.38
396.576	421.38
396.801	411.38
397.025	434.38
397.249	437.38
397.474	430.38
397.698	437.38
397.922	459.38
398.147	476.38
398.371	464.38
398.595	449.38
398.82	461.38
399.044	473.38
399.268	484.38
399.492	534.38
399.717	521.38
399.941	540.38
400.165	570.38
400.389	580.38
400.613	525.38
400.837	494.38
401.062	499.38
401.286	481.38
401.51	471.38
401.734	467.38
401.958	470.38
402.182	482.38
402.406	466.38
402.63	474.38
402.854	473.38
403.078	485.38
403.302	467.38
403.526	483.38
403.75	484.38
403.974	476.38
404.198	464.38
404.422	464.38
404.645	476.38
404.869	521.38
405.093	498.38
405.317	506.38
405.541	544.38
405.765	517.38
405.988	475.38
406.212	493.38
406.436	528.38
406.66	565.38
406.883	538.38
407.107	536.38
407.331	593.38
407.555	639.38
407.778	635.38
408.002	581.38
408.226	521.38
408.449	512.38
408.673	537.38
408.896	563.38
409.12	586.38
409.344	564.38
409.567	505.38
409.791	489.38
410.014	483.38
410.238	487.38
410.461	472.38
410.685	457.38
410.908	506.38
411.132	525.38
411.355	542.38
411.578	541.38
411.802	485.38
412.025	472.38
412.249	470.38
412.472	457.38
412.695	484.38
412.919	492.38
413.142	476.38
413.365	462.38
413.589	464.38
413.812	466.38
414.035	455.38
414.258	455.38
414.482	460.38
414.705	462.38
414.928	459.38
415.151	439.38
415.374	453.38
415.597	449.38
415.821	457.38
416.044	453.38
416.267	447.38
416.49	449.38
416.713	438.38
416.936	446.38
417.159	449.38
417.382	454.38
417.605	443.38
417.828	473.38
418.051	477.38
418.274	459.38
418.497	456.38
418.72	460.38
418.943	450.38
419.166	453.38
419.389	471.38
419.611	481.38
419.834	486.38
420.057	472.38
420.28	475.38
420.503	474.38
420.726	477.38
420.948	484.38
421.171	526.38
421.394	568.38
421.617	503.38
421.839	492.38
422.062	460.38
422.285	478.38
422.507	561.38
422.73	614.38
422.953	607.38
423.175	531.38
423.398	519.38
423.621	516.38
423.843	504.38
424.066	523.38
424.288	520.38
424.511	537.38
424.733	585.38
424.956	657.38
425.178	635.38
425.401	652.38
425.623	677.38
425.846	542.38
426.068	498.38
426.291	517.38
426.513	513.38
426.735	535.38
426.958	555.38
427.18	646.38
427.402	803.38
427.625	882.38
427.847	753.38
428.069	621.38
428.292	541.38
428.514	503.38
428.736	492.38
428.958	503.38
429.181	481.38
429.403	467.38
429.625	484.38
429.847	534.38
430.069	597.38
430.292	606.38
430.514	518.38
430.736	492.38
430.958	467.38
431.18	466.38
431.402	465.38
431.624	465.38
431.846	451.38
432.068	442.38
432.29	455.38
432.512	451.38
432.734	474.38
432.956	462.38
433.178	464.38
433.4	489.38
433.622	457.38
433.844	436.38
434.066	442.38
434.287	433.38
434.509	471.38
434.731	445.38
434.953	455.38
435.175	457.38
435.397	506.38
435.618	493.38
435.84	554.38
436.062	647.38
436.284	734.38
436.505	606.38
436.727	528.38
436.949	510.38
437.17	463.38
437.392	474.38
437.614	502.38
437.835	539.38
438.057	619.38
438.278	773.38
438.5	717.38
438.721	794.38
438.943	753.38
439.165	603.38
439.386	546.38
439.608	534.38
439.829	549.38
440.05	567.38
440.272	625.38
440.493	561.38
440.715	513.38
440.936	513.38
441.158	479.38
441.379	471.38
441.6	510.38
441.822	515.38
442.043	538.38
442.264	622.38
442.486	670.38
442.707	567.38
442.928	533.38
443.149	567.38
443.371	581.38
443.592	600.38
443.813	693.38
444.034	741.38
444.255	628.38
444.476	527.38
444.698	518.38
444.919	511.38
445.14	629.38
445.361	567.38
445.582	552.38
445.803	620.38
446.024	716.38
446.245	743.38
446.466	676.38
446.687	555.38
446.908	533.38
447.129	508.38
447.35	515.38
447.571	485.38
447.792	484.38
448.013	490.38
448.234	513.38
448.455	561.38
448.675	654.38
448.896	772.38
449.117	659.38
449.338	635.38
449.559	733.38
449.779	823.38
450	671.38
450.221	578.38
450.442	499.38
450.662	505.38
450.883	466.38
451.104	515.38
451.324	481.38
451.545	460.38
451.766	444.38
451.986	430.38
452.207	439.38
452.428	431.38
452.648	418.38
452.869	438.38
453.089	436.38
453.31	444.38
453.53	445.38
453.751	447.38
453.971	433.38
454.192	445.38
454.412	438.38
454.633	430.38
454.853	415.38
455.073	424.38
455.294	465.38
455.514	519.38
455.734	520.38
455.955	446.38
456.175	420.38
456.395	398.38
456.616	425.38
456.836	410.38
457.056	402.38
457.276	371.38
457.497	394.38
457.717	404.38
457.937	403.38
458.157	409.38
458.377	431.38
458.598	451.38
458.818	492.38
459.038	570.38
459.258	589.38
459.478	489.38
459.698	446.38
459.918	449.38
460.138	433.38
460.358	456.38
460.578	445.38
460.798	446.38
461.018	458.38
461.238	431.38
461.458	462.38
461.678	433.38
461.898	418.38
462.118	453.38
462.338	462.38
462.558	466.38
462.777	476.38
462.997	467.38
463.217	475.38
463.437	478.38
463.657	473.38
463.876	462.38
464.096	457.38
464.316	443.38
464.536	476.38
464.755	483.38
464.975	471.38
465.195	526.38
465.414	615.38
465.634	557.38
465.854	492.38
466.073	483.38
466.293	454.38
466.512	431.38
466.732	433.38
466.951	437.38
467.171	420.38
467.391	435.38
467.61	451.38
467.829	457.38
468.049	434.38
468.268	438.38
468.488	419.38
468.707	411.38
468.927	413.38
469.146	401.38
469.365	430.38
469.585	414.38
469.804	427.38
470.023	433.38
470.243	444.38
470.462	462.38
470.681	464.38
470.901	460.38
471.12	458.38
471.339	442.38
471.558	426.38
471.777	445.38
471.997	435.38
472.216	418.38
472.435	428.38
472.654	437.38
472.873	441.38
473.092	437.38
473.311	424.38
473.53	450.38
473.749	445.38
473.968	490.38
474.187	602.38
474.406	622.38
474.625	491.38
474.844	461.38
475.063	434.38
475.282	462.38
475.501	440.38
475.72	442.38
475.939	455.38
476.158	458.38
476.377	452.38
476.596	444.38
476.814	452.38
477.033	456.38
477.252	466.38
477.471	464.38
477.69	469.38
477.908	476.38
478.127	472.38
478.346	458.38
478.564	479.38
478.783	485.38
479.002	499.38
479.22	497.38
479.439	530.38
479.658	539.38
479.876	511.38
480.095	522.38
480.313	579.38
480.532	563.38
480.751	548.38
480.969	529.38
481.188	546.38
481.406	542.38
481.624	541.38
481.843	523.38
482.061	523.38
482.28	513.38
482.498	479.38
482.717	490.38
482.935	509.38
483.153	511.38
483.372	498.38
483.59	525.38
483.808	536.38
484.027	497.38
484.245	524.38
484.463	522.38
484.681	522.38
484.9	510.38
485.118	520.38
485.336	505.38
485.554	540.38
485.772	526.38
485.99	539.38
486.209	541.38
486.427	557.38
486.645	561.38
486.863	561.38
487.081	573.38
487.299	553.38
487.517	556.38
487.735	544.38
487.953	562.38
488.171	533.38
488.389	556.38
488.607	565.38
488.825	570.38
489.043	546.38
489.261	549.38
489.479	577.38
489.696	566.38
489.914	577.38
490.132	542.38
490.35	598.38
490.568	573.38
490.786	576.38
491.003	609.38
491.221	599.38
491.439	597.38
491.657	584.38
491.874	602.38
492.092	621.38
492.31	631.38
492.527	621.38
492.745	625.38
492.963	643.38
493.18	652.38
493.398	651.38
493.615	653.38
493.833	643.38
494.05	631.38
494.268	628.38
494.485	646.38
494.703	653.38
494.92	640.38
495.138	675.38
495.355	647.38
495.573	665.38
495.79	642.38
496.008	653.38
496.225	660.38
496.442	672.38
496.66	647.38
496.877	650.38
497.094	682.38
497.312	679.38
497.529	658.38
497.746	676.38
497.963	681.38
498.181	704.38
498.398	698.38
498.615	713.38
498.832	735.38
499.049	717.38
499.267	738.38
499.484	761.38
499.701	766.38
499.918	801.38
500.135	821.38
500.352	852.38
500.569	859.38
500.786	860.38
501.003	873.38
501.22	814.38
501.437	854.38
501.654	815.38
501.871	813.38
