Data from 1989.PennyLincolnUp.Lamp.En5.5.200Scan.071819.P2_HRD10591_17-24-52-973.txt Node
Date: Thu Jul 18 17:24:52 EDT 2019
User: cochatt
Spectrometer: HR+D1059
Trigger mode: 1
Integration Time (sec): 1.000000E-1
Scans to average: 1
Electric dark correction enabled: true
Nonlinearity correction enabled: false
Boxcar width: 0
XAxis mode: Wavelengths
Number of Pixels in Spectrum: 2048
>>>>>Begin Spectral Data<<<<<
223.165	-16.88
223.4	-16.88
223.635	-16.88
223.869	-0.88
224.104	-9.88
224.338	-13.88
224.573	-22.88
224.808	6.12
225.042	-16.88
225.277	0.12
225.511	-23.88
225.746	8.12
225.98	14.12
226.215	7.12
226.449	14.12
226.683	15.12
226.918	25.12
227.152	15.12
227.387	40.12
227.621	30.12
227.856	31.12
228.09	41.12
228.324	39.12
228.559	55.12
228.793	52.12
229.027	89.12
229.262	114.12
229.496	120.12
229.73	140.12
229.964	172.12
230.199	143.12
230.433	114.12
230.667	113.12
230.901	123.12
231.136	121.12
231.37	122.12
231.604	100.12
231.838	126.12
232.072	115.12
232.306	118.12
232.541	116.12
232.775	109.12
233.009	108.12
233.243	116.12
233.477	113.12
233.711	115.12
233.945	123.12
234.179	121.12
234.413	117.12
234.647	124.12
234.881	137.12
235.115	126.12
235.349	127.12
235.583	121.12
235.817	131.12
236.051	133.12
236.285	136.12
236.519	115.12
236.753	119.12
236.987	160.12
237.221	193.12
237.455	229.12
237.689	195.12
237.922	151.12
238.156	149.12
238.39	129.12
238.624	137.12
238.858	126.12
239.091	121.12
239.325	138.12
239.559	126.12
239.793	124.12
240.027	141.12
240.26	149.12
240.494	158.12
240.728	174.12
240.961	166.12
241.195	165.12
241.429	136.12
241.662	121.12
241.896	135.12
242.13	125.12
242.363	149.12
242.597	146.12
242.83	137.12
243.064	134.12
243.298	147.12
243.531	138.12
243.765	139.12
243.998	137.12
244.232	142.12
244.465	143.12
244.699	146.12
244.932	158.12
245.166	152.12
245.399	147.12
245.633	153.12
245.866	133.12
246.099	150.12
246.333	155.12
246.566	163.12
246.8	161.12
247.033	156.12
247.266	174.12
247.5	187.12
247.733	163.12
247.966	187.12
248.2	184.12
248.433	183.12
248.666	191.12
248.899	195.12
249.133	213.12
249.366	236.12
249.599	211.12
249.832	204.12
250.066	207.12
250.299	193.12
250.532	209.12
250.765	216.12
250.998	225.12
251.231	237.12
251.465	256.12
251.698	232.12
251.931	216.12
252.164	210.12
252.397	205.12
252.63	219.12
252.863	221.12
253.096	239.12
253.329	238.12
253.562	255.12
253.795	249.12
254.028	253.12
254.261	239.12
254.494	239.12
254.727	275.12
254.96	309.12
255.193	284.12
255.426	277.12
255.659	263.12
255.892	255.12
256.124	249.12
256.357	231.12
256.59	235.12
256.823	235.12
257.056	224.12
257.289	220.12
257.521	231.12
257.754	226.12
257.987	219.12
258.22	240.12
258.452	219.12
258.685	221.12
258.918	226.12
259.151	254.12
259.383	247.12
259.616	227.12
259.849	246.12
260.081	263.12
260.314	267.12
260.547	294.12
260.779	271.12
261.012	259.12
261.244	265.12
261.477	238.12
261.71	225.12
261.942	241.12
262.175	256.12
262.407	272.12
262.64	243.12
262.872	238.12
263.105	235.12
263.337	244.12
263.57	243.12
263.802	222.12
264.035	222.12
264.267	228.12
264.499	232.12
264.732	227.12
264.964	235.12
265.197	229.12
265.429	225.12
265.661	234.12
265.894	234.12
266.126	236.12
266.358	222.12
266.591	209.12
266.823	235.12
267.055	243.12
267.287	247.12
267.52	258.12
267.752	223.12
267.984	252.12
268.216	247.12
268.448	256.12
268.681	253.12
268.913	261.12
269.145	267.12
269.377	291.12
269.609	284.12
269.841	292.12
270.073	305.12
270.306	319.12
270.538	341.12
270.77	335.12
271.002	327.12
271.234	315.12
271.466	327.12
271.698	334.12
271.93	330.12
272.162	327.12
272.394	352.12
272.626	331.12
272.858	329.12
273.09	301.12
273.322	292.12
273.553	293.12
273.785	281.12
274.017	290.12
274.249	284.12
274.481	273.12
274.713	310.12
274.945	274.12
275.176	283.12
275.408	267.12
275.64	295.12
275.872	282.12
276.104	299.12
276.335	257.12
276.567	298.12
276.799	302.12
277.031	313.12
277.262	345.12
277.494	357.12
277.726	323.12
277.957	306.12
278.189	290.12
278.421	301.12
278.652	284.12
278.884	302.12
279.115	289.12
279.347	289.12
279.579	292.12
279.81	283.12
280.042	282.12
280.273	287.12
280.505	277.12
280.736	284.12
280.968	259.12
281.199	269.12
281.431	283.12
281.662	300.12
281.894	290.12
282.125	276.12
282.356	311.12
282.588	327.12
282.819	334.12
283.051	295.12
283.282	282.12
283.513	291.12
283.745	292.12
283.976	286.12
284.207	321.12
284.439	299.12
284.67	289.12
284.901	286.12
285.132	279.12
285.364	281.12
285.595	293.12
285.826	288.12
286.057	283.12
286.288	311.12
286.52	305.12
286.751	317.12
286.982	311.12
287.213	317.12
287.444	313.12
287.675	290.12
287.906	318.12
288.138	321.12
288.369	327.12
288.6	322.12
288.831	307.12
289.062	313.12
289.293	311.12
289.524	318.12
289.755	313.12
289.986	305.12
290.217	298.12
290.448	285.12
290.679	301.12
290.91	313.12
291.141	308.12
291.371	298.12
291.602	299.12
291.833	310.12
292.064	320.12
292.295	318.12
292.526	311.12
292.757	291.12
292.987	312.12
293.218	296.12
293.449	302.12
293.68	303.12
293.91	314.12
294.141	303.12
294.372	294.12
294.603	293.12
294.833	319.12
295.064	300.12
295.295	316.12
295.525	305.12
295.756	314.12
295.987	330.12
296.217	358.12
296.448	347.12
296.679	324.12
296.909	313.12
297.14	311.12
297.37	310.12
297.601	306.12
297.831	314.12
298.062	329.12
298.292	305.12
298.523	319.12
298.753	323.12
298.984	322.12
299.214	317.12
299.445	317.12
299.675	312.12
299.905	343.12
300.136	321.12
300.366	328.12
300.597	332.12
300.827	340.12
301.057	325.12
301.288	349.12
301.518	346.12
301.748	334.12
301.979	343.12
302.209	350.12
302.439	350.12
302.669	341.12
302.9	334.12
303.13	326.12
303.36	345.12
303.59	344.12
303.82	351.12
304.051	346.12
304.281	335.12
304.511	347.12
304.741	335.12
304.971	345.12
305.201	339.12
305.431	346.12
305.661	373.12
305.891	332.12
306.121	339.12
306.352	358.12
306.582	343.12
306.812	363.12
307.042	360.12
307.272	360.12
307.502	348.12
307.731	340.12
307.961	334.12
308.191	339.12
308.421	342.12
308.651	355.12
308.881	336.12
309.111	359.12
309.341	349.12
309.571	381.12
309.8	383.12
310.03	404.12
310.26	389.12
310.49	377.12
310.72	407.12
310.949	411.12
311.179	422.12
311.409	403.12
311.639	392.12
311.868	405.12
312.098	394.12
312.328	423.12
312.557	423.12
312.787	434.12
313.017	424.12
313.246	417.12
313.476	390.12
313.706	405.12
313.935	389.12
314.165	417.12
314.394	421.12
314.624	422.12
314.853	417.12
315.083	395.12
315.312	409.12
315.542	378.12
315.771	399.12
316.001	404.12
316.23	389.12
316.46	374.12
316.689	413.12
316.919	427.12
317.148	413.12
317.377	403.12
317.607	413.12
317.836	402.12
318.065	403.12
318.295	394.12
318.524	385.12
318.753	397.12
318.983	392.12
319.212	414.12
319.441	419.12
319.67	421.12
319.9	411.12
320.129	405.12
320.358	420.12
320.587	393.12
320.816	430.12
321.046	423.12
321.275	412.12
321.504	427.12
321.733	435.12
321.962	440.12
322.191	438.12
322.42	442.12
322.649	470.12
322.878	479.12
323.108	499.12
323.337	519.12
323.566	524.12
323.795	587.12
324.024	642.12
324.253	788.12
324.482	1098.12
324.71	1697.12
324.939	2436.12
325.168	2105.12
325.397	1092.12
325.626	722.12
325.855	600.12
326.084	533.12
326.313	524.12
326.542	565.12
326.77	593.12
326.999	705.12
327.228	964.12
327.457	1477.12
327.686	1816.12
327.914	1226.12
328.143	791.12
328.372	689.12
328.6	630.12
328.829	616.12
329.058	631.12
329.287	636.12
329.515	589.12
329.744	535.12
329.972	526.12
330.201	533.12
330.43	594.12
330.658	599.12
330.887	663.12
331.115	625.12
331.344	555.12
331.572	535.12
331.801	529.12
332.03	516.12
332.258	518.12
332.486	470.12
332.715	458.12
332.943	452.12
333.172	465.12
333.4	458.12
333.629	479.12
333.857	494.12
334.085	489.12
334.314	493.12
334.542	481.12
334.771	503.12
334.999	486.12
335.227	470.12
335.455	459.12
335.684	454.12
335.912	435.12
336.14	454.12
336.369	454.12
336.597	459.12
336.825	450.12
337.053	451.12
337.281	445.12
337.51	453.12
337.738	458.12
337.966	458.12
338.194	457.12
338.422	449.12
338.65	454.12
338.878	428.12
339.106	423.12
339.334	422.12
339.562	419.12
339.79	444.12
340.018	434.12
340.246	447.12
340.474	439.12
340.702	439.12
340.93	415.12
341.158	443.12
341.386	422.12
341.614	426.12
341.842	454.12
342.07	411.12
342.298	423.12
342.526	436.12
342.754	422.12
342.981	426.12
343.209	426.12
343.437	428.12
343.665	440.12
343.893	427.12
344.12	443.12
344.348	467.12
344.576	451.12
344.804	456.12
345.031	437.12
345.259	483.12
345.487	437.12
345.714	427.12
345.942	436.12
346.17	431.12
346.397	424.12
346.625	428.12
346.853	427.12
347.08	419.12
347.308	437.12
347.535	422.12
347.763	449.12
347.99	442.12
348.218	428.12
348.445	453.12
348.673	432.12
348.9	411.12
349.128	424.12
349.355	405.12
349.583	392.12
349.81	414.12
350.037	401.12
350.265	403.12
350.492	418.12
350.72	412.12
350.947	399.12
351.174	426.12
351.402	430.12
351.629	428.12
351.856	421.12
352.083	450.12
352.311	438.12
352.538	434.12
352.765	448.12
352.992	418.12
353.22	425.12
353.447	394.12
353.674	407.12
353.901	406.12
354.128	406.12
354.355	386.12
354.583	391.12
354.81	394.12
355.037	382.12
355.264	378.12
355.491	398.12
355.718	405.12
355.945	393.12
356.172	388.12
356.399	412.12
356.626	407.12
356.853	377.12
357.08	405.12
357.307	368.12
357.534	386.12
357.761	390.12
357.988	382.12
358.215	406.12
358.441	398.12
358.668	407.12
358.895	393.12
359.122	400.12
359.349	406.12
359.576	425.12
359.802	437.12
360.029	468.12
360.256	463.12
360.483	471.12
360.709	430.12
360.936	423.12
361.163	429.12
361.39	427.12
361.616	420.12
361.843	419.12
362.07	413.12
362.296	451.12
362.523	435.12
362.749	426.12
362.976	423.12
363.203	391.12
363.429	386.12
363.656	381.12
363.882	377.12
364.109	396.12
364.335	390.12
364.562	391.12
364.788	402.12
365.015	398.12
365.241	399.12
365.468	386.12
365.694	406.12
365.92	390.12
366.147	398.12
366.373	393.12
366.599	385.12
366.826	405.12
367.052	393.12
367.278	394.12
367.505	394.12
367.731	387.12
367.957	379.12
368.184	390.12
368.41	385.12
368.636	393.12
368.862	400.12
369.089	383.12
369.315	384.12
369.541	394.12
369.767	382.12
369.993	395.12
370.219	397.12
370.445	425.12
370.672	381.12
370.898	394.12
371.124	380.12
371.35	409.12
371.576	380.12
371.802	371.12
372.028	375.12
372.254	382.12
372.48	397.12
372.706	385.12
372.932	395.12
373.158	349.12
373.384	393.12
373.61	399.12
373.835	376.12
374.061	377.12
374.287	391.12
374.513	381.12
374.739	390.12
374.965	387.12
375.191	379.12
375.416	393.12
375.642	388.12
375.868	390.12
376.094	384.12
376.319	395.12
376.545	393.12
376.771	388.12
376.997	376.12
377.222	366.12
377.448	375.12
377.674	382.12
377.899	394.12
378.125	370.12
378.35	375.12
378.576	363.12
378.802	364.12
379.027	376.12
379.253	382.12
379.478	363.12
379.704	377.12
379.929	358.12
380.155	391.12
380.38	387.12
380.606	384.12
380.831	383.12
381.057	399.12
381.282	390.12
381.507	382.12
381.733	383.12
381.958	379.12
382.184	380.12
382.409	370.12
382.634	385.12
382.86	379.12
383.085	382.12
383.31	369.12
383.535	388.12
383.761	394.12
383.986	403.12
384.211	391.12
384.436	407.12
384.662	412.12
384.887	403.12
385.112	395.12
385.337	396.12
385.562	387.12
385.787	414.12
386.013	403.12
386.238	399.12
386.463	410.12
386.688	412.12
386.913	418.12
387.138	392.12
387.363	401.12
387.588	394.12
387.813	397.12
388.038	384.12
388.263	391.12
388.488	397.12
388.713	385.12
388.938	393.12
389.163	405.12
389.387	393.12
389.612	404.12
389.837	407.12
390.062	411.12
390.287	389.12
390.512	385.12
390.736	415.12
390.961	405.12
391.186	385.12
391.411	388.12
391.636	408.12
391.86	428.12
392.085	403.12
392.31	416.12
392.534	409.12
392.759	423.12
392.984	405.12
393.208	394.12
393.433	379.12
393.658	392.12
393.882	395.12
394.107	384.12
394.331	413.12
394.556	406.12
394.78	417.12
395.005	408.12
395.229	395.12
395.454	409.12
395.678	435.12
395.903	423.12
396.127	433.12
396.352	424.12
396.576	444.12
396.801	421.12
397.025	381.12
397.249	410.12
397.474	411.12
397.698	422.12
397.922	437.12
398.147	447.12
398.371	454.12
398.595	455.12
398.82	435.12
399.044	447.12
399.268	457.12
399.492	482.12
399.717	497.12
399.941	527.12
400.165	563.12
400.389	554.12
400.613	509.12
400.837	485.12
401.062	463.12
401.286	455.12
401.51	442.12
401.734	423.12
401.958	454.12
402.182	481.12
402.406	459.12
402.63	456.12
402.854	477.12
403.078	458.12
403.302	491.12
403.526	465.12
403.75	461.12
403.974	457.12
404.198	445.12
404.422	480.12
404.645	492.12
404.869	464.12
405.093	510.12
405.317	535.12
405.541	555.12
405.765	520.12
405.988	491.12
406.212	496.12
406.436	526.12
406.66	537.12
406.883	517.12
407.107	524.12
407.331	571.12
407.555	620.12
407.778	609.12
408.002	559.12
408.226	540.12
408.449	520.12
408.673	515.12
408.896	539.12
409.12	578.12
409.344	579.12
409.567	502.12
409.791	478.12
410.014	488.12
410.238	465.12
410.461	489.12
410.685	485.12
410.908	479.12
411.132	521.12
411.355	559.12
411.578	546.12
411.802	460.12
412.025	463.12
412.249	466.12
412.472	482.12
412.695	519.12
412.919	514.12
413.142	479.12
413.365	449.12
413.589	458.12
413.812	443.12
414.035	435.12
414.258	422.12
414.482	420.12
414.705	467.12
414.928	447.12
415.151	433.12
415.374	440.12
415.597	438.12
415.821	437.12
416.044	451.12
416.267	429.12
416.49	447.12
416.713	424.12
416.936	438.12
417.159	452.12
417.382	436.12
417.605	459.12
417.828	459.12
418.051	457.12
418.274	458.12
418.497	433.12
418.72	461.12
418.943	454.12
419.166	465.12
419.389	472.12
419.611	455.12
419.834	467.12
420.057	469.12
420.28	483.12
420.503	459.12
420.726	469.12
420.948	478.12
421.171	517.12
421.394	547.12
421.617	481.12
421.839	468.12
422.062	479.12
422.285	478.12
422.507	526.12
422.73	590.12
422.953	577.12
423.175	517.12
423.398	502.12
423.621	489.12
423.843	507.12
424.066	507.12
424.288	501.12
424.511	509.12
424.733	569.12
424.956	663.12
425.178	627.12
425.401	630.12
425.623	651.12
425.846	549.12
426.068	516.12
426.291	515.12
426.513	494.12
426.735	551.12
426.958	559.12
427.18	652.12
427.402	768.12
427.625	823.12
427.847	743.12
428.069	632.12
428.292	552.12
428.514	477.12
428.736	485.12
428.958	469.12
429.181	468.12
429.403	462.12
429.625	475.12
429.847	524.12
430.069	599.12
430.292	609.12
430.514	491.12
430.736	475.12
430.958	459.12
431.18	467.12
431.402	448.12
431.624	436.12
431.846	455.12
432.068	437.12
432.29	443.12
432.512	463.12
432.734	448.12
432.956	442.12
433.178	443.12
433.4	454.12
433.622	439.12
433.844	450.12
434.066	433.12
434.287	464.12
434.509	430.12
434.731	460.12
434.953	459.12
435.175	471.12
435.397	493.12
435.618	497.12
435.84	539.12
436.062	625.12
436.284	732.12
436.505	618.12
436.727	536.12
436.949	494.12
437.17	490.12
437.392	444.12
437.614	494.12
437.835	515.12
438.057	613.12
438.278	715.12
438.5	697.12
438.721	789.12
438.943	733.12
439.165	601.12
439.386	554.12
439.608	526.12
439.829	531.12
440.05	576.12
440.272	619.12
440.493	565.12
440.715	521.12
440.936	491.12
441.158	474.12
441.379	485.12
441.6	509.12
441.822	512.12
442.043	537.12
442.264	628.12
442.486	709.12
442.707	593.12
442.928	523.12
443.149	530.12
443.371	523.12
443.592	567.12
443.813	683.12
444.034	740.12
444.255	606.12
444.476	538.12
444.698	516.12
444.919	511.12
445.14	613.12
445.361	581.12
445.582	566.12
445.803	627.12
446.024	717.12
446.245	718.12
446.466	673.12
446.687	578.12
446.908	525.12
447.129	511.12
447.35	471.12
447.571	454.12
447.792	471.12
448.013	474.12
448.234	483.12
448.455	553.12
448.675	677.12
448.896	763.12
449.117	681.12
449.338	650.12
449.559	731.12
449.779	805.12
450	647.12
450.221	572.12
450.442	510.12
450.662	476.12
450.883	479.12
451.104	468.12
451.324	487.12
451.545	445.12
451.766	436.12
451.986	439.12
452.207	421.12
452.428	426.12
452.648	416.12
452.869	437.12
453.089	421.12
453.31	443.12
453.53	458.12
453.751	416.12
453.971	431.12
454.192	451.12
454.412	434.12
454.633	410.12
454.853	426.12
455.073	412.12
455.294	465.12
455.514	519.12
455.734	512.12
455.955	435.12
456.175	379.12
456.395	393.12
456.616	398.12
456.836	392.12
457.056	376.12
457.276	369.12
457.497	410.12
457.717	378.12
457.937	395.12
458.157	421.12
458.377	398.12
458.598	431.12
458.818	458.12
459.038	590.12
459.258	587.12
459.478	490.12
459.698	483.12
459.918	446.12
460.138	450.12
460.358	431.12
460.578	415.12
460.798	434.12
461.018	438.12
461.238	438.12
461.458	417.12
461.678	410.12
461.898	423.12
462.118	430.12
462.338	428.12
462.558	445.12
462.777	435.12
462.997	443.12
463.217	443.12
463.437	460.12
463.657	455.12
463.876	462.12
464.096	440.12
464.316	477.12
464.536	449.12
464.755	471.12
464.975	484.12
465.195	522.12
465.414	590.12
465.634	513.12
465.854	500.12
466.073	452.12
466.293	445.12
466.512	409.12
466.732	429.12
466.951	427.12
467.171	424.12
467.391	429.12
467.61	434.12
467.829	423.12
468.049	435.12
468.268	426.12
468.488	443.12
468.707	422.12
468.927	409.12
469.146	400.12
469.365	415.12
469.585	398.12
469.804	414.12
470.023	427.12
470.243	432.12
470.462	428.12
470.681	461.12
470.901	450.12
471.12	421.12
471.339	413.12
471.558	426.12
471.777	419.12
471.997	424.12
472.216	451.12
472.435	444.12
472.654	430.12
472.873	428.12
473.092	423.12
473.311	441.12
473.53	426.12
473.749	447.12
473.968	494.12
474.187	622.12
474.406	609.12
474.625	481.12
474.844	454.12
475.063	453.12
475.282	434.12
475.501	425.12
475.72	453.12
475.939	436.12
476.158	440.12
476.377	434.12
476.596	445.12
476.814	443.12
477.033	461.12
477.252	447.12
477.471	472.12
477.69	468.12
477.908	472.12
478.127	456.12
478.346	482.12
478.564	471.12
478.783	489.12
479.002	484.12
479.22	478.12
479.439	518.12
479.658	490.12
479.876	505.12
480.095	547.12
480.313	567.12
480.532	539.12
480.751	538.12
480.969	538.12
481.188	563.12
481.406	569.12
481.624	543.12
481.843	535.12
482.061	506.12
482.28	495.12
482.498	519.12
482.717	497.12
482.935	510.12
483.153	507.12
483.372	507.12
483.59	502.12
483.808	488.12
484.027	507.12
484.245	514.12
484.463	501.12
484.681	523.12
484.9	485.12
485.118	518.12
485.336	537.12
485.554	526.12
485.772	513.12
485.99	546.12
486.209	542.12
486.427	526.12
486.645	533.12
486.863	542.12
487.081	550.12
487.299	538.12
487.517	550.12
487.735	548.12
487.953	538.12
488.171	545.12
488.389	564.12
488.607	559.12
488.825	541.12
489.043	552.12
489.261	556.12
489.479	565.12
489.696	564.12
489.914	581.12
490.132	562.12
490.35	567.12
490.568	573.12
490.786	582.12
491.003	574.12
491.221	598.12
491.439	600.12
491.657	631.12
491.874	615.12
492.092	637.12
492.31	617.12
492.527	605.12
492.745	643.12
492.963	651.12
493.18	642.12
493.398	633.12
493.615	653.12
493.833	630.12
494.05	662.12
494.268	636.12
494.485	623.12
494.703	651.12
494.92	653.12
495.138	636.12
495.355	660.12
495.573	646.12
495.79	632.12
496.008	640.12
496.225	629.12
496.442	665.12
496.66	652.12
496.877	639.12
497.094	661.12
497.312	669.12
497.529	690.12
497.746	686.12
497.963	678.12
498.181	714.12
498.398	683.12
498.615	713.12
498.832	674.12
499.049	705.12
499.267	717.12
499.484	748.12
499.701	766.12
499.918	787.12
500.135	786.12
500.352	843.12
500.569	811.12
500.786	833.12
501.003	826.12
501.22	823.12
501.437	802.12
501.654	797.12
501.871	812.12
