Data from 1989.PennyLincolnUp.Lamp.En5.5.200Scan.071819.P2_HRD10591_17-23-29-972.txt Node
Date: Thu Jul 18 17:23:29 EDT 2019
User: cochatt
Spectrometer: HR+D1059
Trigger mode: 1
Integration Time (sec): 1.000000E-1
Scans to average: 1
Electric dark correction enabled: true
Nonlinearity correction enabled: false
Boxcar width: 0
XAxis mode: Wavelengths
Number of Pixels in Spectrum: 2048
>>>>>Begin Spectral Data<<<<<
223.165	-14.81
223.4	-14.81
223.635	-14.81
223.869	-20.81
224.104	0.19
224.338	-18.81
224.573	-1.81
224.808	-15.81
225.042	6.19
225.277	-8.81
225.511	-8.81
225.746	5.19
225.98	3.19
226.215	6.19
226.449	5.19
226.683	27.19
226.918	18.19
227.152	18.19
227.387	15.19
227.621	37.19
227.856	29.19
228.09	43.19
228.324	64.19
228.559	55.19
228.793	74.19
229.027	97.19
229.262	114.19
229.496	100.19
229.73	121.19
229.964	135.19
230.199	128.19
230.433	103.19
230.667	89.19
230.901	113.19
231.136	104.19
231.37	104.19
231.604	100.19
231.838	121.19
232.072	117.19
232.306	109.19
232.541	121.19
232.775	117.19
233.009	99.19
233.243	105.19
233.477	110.19
233.711	114.19
233.945	112.19
234.179	116.19
234.413	105.19
234.647	119.19
234.881	102.19
235.115	101.19
235.349	109.19
235.583	120.19
235.817	116.19
236.051	139.19
236.285	109.19
236.519	111.19
236.753	133.19
236.987	145.19
237.221	158.19
237.455	218.19
237.689	161.19
237.922	150.19
238.156	110.19
238.39	117.19
238.624	126.19
238.858	126.19
239.091	134.19
239.325	115.19
239.559	118.19
239.793	137.19
240.027	133.19
240.26	133.19
240.494	148.19
240.728	162.19
240.961	140.19
241.195	145.19
241.429	137.19
241.662	123.19
241.896	132.19
242.13	137.19
242.363	129.19
242.597	136.19
242.83	127.19
243.064	120.19
243.298	143.19
243.531	145.19
243.765	145.19
243.998	144.19
244.232	141.19
244.465	149.19
244.699	151.19
244.932	149.19
245.166	161.19
245.399	153.19
245.633	151.19
245.866	150.19
246.099	166.19
246.333	143.19
246.566	150.19
246.8	171.19
247.033	159.19
247.266	152.19
247.5	153.19
247.733	162.19
247.966	182.19
248.2	185.19
248.433	164.19
248.666	184.19
248.899	189.19
249.133	175.19
249.366	193.19
249.599	202.19
249.832	177.19
250.066	186.19
250.299	184.19
250.532	170.19
250.765	191.19
250.998	220.19
251.231	199.19
251.465	231.19
251.698	195.19
251.931	184.19
252.164	193.19
252.397	204.19
252.63	221.19
252.863	223.19
253.096	216.19
253.329	245.19
253.562	233.19
253.795	200.19
254.028	231.19
254.261	227.19
254.494	228.19
254.727	227.19
254.96	278.19
255.193	265.19
255.426	231.19
255.659	220.19
255.892	209.19
256.124	212.19
256.357	212.19
256.59	214.19
256.823	205.19
257.056	212.19
257.289	199.19
257.521	224.19
257.754	212.19
257.987	217.19
258.22	203.19
258.452	194.19
258.685	191.19
258.918	217.19
259.151	213.19
259.383	225.19
259.616	224.19
259.849	228.19
260.081	241.19
260.314	265.19
260.547	243.19
260.779	239.19
261.012	248.19
261.244	220.19
261.477	221.19
261.71	216.19
261.942	224.19
262.175	218.19
262.407	222.19
262.64	225.19
262.872	215.19
263.105	212.19
263.337	206.19
263.57	217.19
263.802	217.19
264.035	222.19
264.267	238.19
264.499	225.19
264.732	209.19
264.964	222.19
265.197	196.19
265.429	205.19
265.661	204.19
265.894	199.19
266.126	219.19
266.358	203.19
266.591	226.19
266.823	215.19
267.055	220.19
267.287	219.19
267.52	232.19
267.752	227.19
267.984	230.19
268.216	227.19
268.448	220.19
268.681	221.19
268.913	246.19
269.145	261.19
269.377	267.19
269.609	258.19
269.841	276.19
270.073	267.19
270.306	277.19
270.538	310.19
270.77	320.19
271.002	298.19
271.234	285.19
271.466	304.19
271.698	298.19
271.93	316.19
272.162	317.19
272.394	295.19
272.626	278.19
272.858	307.19
273.09	278.19
273.322	268.19
273.553	265.19
273.785	254.19
274.017	277.19
274.249	251.19
274.481	258.19
274.713	270.19
274.945	271.19
275.176	250.19
275.408	267.19
275.64	275.19
275.872	251.19
276.104	260.19
276.335	268.19
276.567	266.19
276.799	290.19
277.031	297.19
277.262	293.19
277.494	318.19
277.726	301.19
277.957	293.19
278.189	289.19
278.421	269.19
278.652	280.19
278.884	277.19
279.115	283.19
279.347	275.19
279.579	265.19
279.81	260.19
280.042	275.19
280.273	269.19
280.505	265.19
280.736	260.19
280.968	272.19
281.199	261.19
281.431	260.19
281.662	265.19
281.894	274.19
282.125	284.19
282.356	284.19
282.588	294.19
282.819	313.19
283.051	270.19
283.282	275.19
283.513	270.19
283.745	269.19
283.976	271.19
284.207	269.19
284.439	280.19
284.67	269.19
284.901	285.19
285.132	275.19
285.364	290.19
285.595	293.19
285.826	279.19
286.057	266.19
286.288	283.19
286.52	276.19
286.751	277.19
286.982	300.19
287.213	275.19
287.444	287.19
287.675	287.19
287.906	295.19
288.138	283.19
288.369	289.19
288.6	308.19
288.831	300.19
289.062	290.19
289.293	297.19
289.524	270.19
289.755	295.19
289.986	294.19
290.217	295.19
290.448	270.19
290.679	285.19
290.91	264.19
291.141	292.19
291.371	280.19
291.602	279.19
291.833	273.19
292.064	292.19
292.295	278.19
292.526	286.19
292.757	285.19
292.987	286.19
293.218	275.19
293.449	285.19
293.68	278.19
293.91	284.19
294.141	294.19
294.372	284.19
294.603	279.19
294.833	302.19
295.064	281.19
295.295	292.19
295.525	299.19
295.756	296.19
295.987	294.19
296.217	308.19
296.448	321.19
296.679	307.19
296.909	272.19
297.14	280.19
297.37	295.19
297.601	308.19
297.831	290.19
298.062	285.19
298.292	291.19
298.523	297.19
298.753	285.19
298.984	318.19
299.214	296.19
299.445	296.19
299.675	308.19
299.905	296.19
300.136	294.19
300.366	293.19
300.597	314.19
300.827	316.19
301.057	309.19
301.288	321.19
301.518	306.19
301.748	302.19
301.979	320.19
302.209	322.19
302.439	325.19
302.669	323.19
302.9	310.19
303.13	334.19
303.36	331.19
303.59	317.19
303.82	324.19
304.051	321.19
304.281	313.19
304.511	307.19
304.741	327.19
304.971	327.19
305.201	326.19
305.431	321.19
305.661	313.19
305.891	317.19
306.121	306.19
306.352	324.19
306.582	358.19
306.812	327.19
307.042	329.19
307.272	329.19
307.502	329.19
307.731	345.19
307.961	327.19
308.191	317.19
308.421	314.19
308.651	328.19
308.881	326.19
309.111	333.19
309.341	329.19
309.571	344.19
309.8	346.19
310.03	362.19
310.26	358.19
310.49	357.19
310.72	353.19
310.949	359.19
311.179	372.19
311.409	369.19
311.639	375.19
311.868	362.19
312.098	360.19
312.328	379.19
312.557	399.19
312.787	407.19
313.017	391.19
313.246	378.19
313.476	387.19
313.706	366.19
313.935	357.19
314.165	390.19
314.394	375.19
314.624	382.19
314.853	363.19
315.083	384.19
315.312	347.19
315.542	354.19
315.771	366.19
316.001	374.19
316.23	379.19
316.46	374.19
316.689	369.19
316.919	361.19
317.148	377.19
317.377	372.19
317.607	351.19
317.836	361.19
318.065	363.19
318.295	370.19
318.524	354.19
318.753	380.19
318.983	371.19
319.212	372.19
319.441	371.19
319.67	370.19
319.9	389.19
320.129	395.19
320.358	366.19
320.587	379.19
320.816	381.19
321.046	382.19
321.275	407.19
321.504	400.19
321.733	386.19
321.962	388.19
322.191	393.19
322.42	391.19
322.649	418.19
322.878	412.19
323.108	461.19
323.337	458.19
323.566	474.19
323.795	499.19
324.024	524.19
324.253	626.19
324.482	903.19
324.71	1381.19
324.939	1957.19
325.168	1711.19
325.397	897.19
325.626	607.19
325.855	535.19
326.084	483.19
326.313	468.19
326.542	466.19
326.77	510.19
326.999	587.19
327.228	827.19
327.457	1224.19
327.686	1510.19
327.914	1021.19
328.143	659.19
328.372	557.19
328.6	549.19
328.829	522.19
329.058	547.19
329.287	528.19
329.515	500.19
329.744	477.19
329.972	457.19
330.201	457.19
330.43	501.19
330.658	489.19
330.887	549.19
331.115	538.19
331.344	478.19
331.572	465.19
331.801	481.19
332.03	468.19
332.258	451.19
332.486	449.19
332.715	416.19
332.943	436.19
333.172	429.19
333.4	421.19
333.629	419.19
333.857	433.19
334.085	434.19
334.314	432.19
334.542	433.19
334.771	463.19
334.999	437.19
335.227	427.19
335.455	414.19
335.684	426.19
335.912	407.19
336.14	413.19
336.369	400.19
336.597	420.19
336.825	426.19
337.053	427.19
337.281	424.19
337.51	405.19
337.738	404.19
337.966	408.19
338.194	424.19
338.422	412.19
338.65	422.19
338.878	403.19
339.106	407.19
339.334	391.19
339.562	409.19
339.79	415.19
340.018	410.19
340.246	408.19
340.474	404.19
340.702	430.19
340.93	396.19
341.158	411.19
341.386	414.19
341.614	389.19
341.842	382.19
342.07	402.19
342.298	405.19
342.526	398.19
342.754	385.19
342.981	395.19
343.209	420.19
343.437	399.19
343.665	399.19
343.893	394.19
344.12	437.19
344.348	408.19
344.576	403.19
344.804	409.19
345.031	418.19
345.259	406.19
345.487	422.19
345.714	400.19
345.942	394.19
346.17	414.19
346.397	408.19
346.625	394.19
346.853	400.19
347.08	393.19
347.308	391.19
347.535	405.19
347.763	394.19
347.99	403.19
348.218	407.19
348.445	392.19
348.673	412.19
348.9	390.19
349.128	407.19
349.355	379.19
349.583	363.19
349.81	375.19
350.037	359.19
350.265	365.19
350.492	386.19
350.72	370.19
350.947	375.19
351.174	381.19
351.402	394.19
351.629	401.19
351.856	416.19
352.083	416.19
352.311	415.19
352.538	417.19
352.765	401.19
352.992	393.19
353.22	385.19
353.447	382.19
353.674	394.19
353.901	379.19
354.128	371.19
354.355	363.19
354.583	358.19
354.81	394.19
355.037	345.19
355.264	372.19
355.491	375.19
355.718	346.19
355.945	350.19
356.172	345.19
356.399	365.19
356.626	366.19
356.853	379.19
357.08	389.19
357.307	361.19
357.534	371.19
357.761	361.19
357.988	357.19
358.215	351.19
358.441	362.19
358.668	377.19
358.895	377.19
359.122	378.19
359.349	378.19
359.576	384.19
359.802	415.19
360.029	436.19
360.256	434.19
360.483	414.19
360.709	409.19
360.936	414.19
361.163	398.19
361.39	385.19
361.616	386.19
361.843	372.19
362.07	392.19
362.296	377.19
362.523	401.19
362.749	384.19
362.976	374.19
363.203	381.19
363.429	371.19
363.656	361.19
363.882	365.19
364.109	375.19
364.335	374.19
364.562	371.19
364.788	362.19
365.015	391.19
365.241	372.19
365.468	374.19
365.694	375.19
365.92	377.19
366.147	371.19
366.373	378.19
366.599	359.19
366.826	355.19
367.052	362.19
367.278	375.19
367.505	361.19
367.731	350.19
367.957	358.19
368.184	377.19
368.41	371.19
368.636	380.19
368.862	383.19
369.089	355.19
369.315	359.19
369.541	363.19
369.767	356.19
369.993	367.19
370.219	361.19
370.445	374.19
370.672	361.19
370.898	376.19
371.124	367.19
371.35	369.19
371.576	371.19
371.802	375.19
372.028	378.19
372.254	363.19
372.48	348.19
372.706	358.19
372.932	360.19
373.158	354.19
373.384	371.19
373.61	377.19
373.835	351.19
374.061	345.19
374.287	361.19
374.513	349.19
374.739	356.19
374.965	372.19
375.191	369.19
375.416	374.19
375.642	361.19
375.868	362.19
376.094	359.19
376.319	378.19
376.545	350.19
376.771	359.19
376.997	356.19
377.222	357.19
377.448	373.19
377.674	351.19
377.899	341.19
378.125	345.19
378.35	362.19
378.576	362.19
378.802	347.19
379.027	360.19
379.253	360.19
379.478	369.19
379.704	376.19
379.929	369.19
380.155	361.19
380.38	355.19
380.606	373.19
380.831	352.19
381.057	381.19
381.282	365.19
381.507	367.19
381.733	378.19
381.958	357.19
382.184	373.19
382.409	353.19
382.634	373.19
382.86	371.19
383.085	377.19
383.31	371.19
383.535	377.19
383.761	388.19
383.986	382.19
384.211	383.19
384.436	375.19
384.662	375.19
384.887	374.19
385.112	389.19
385.337	357.19
385.562	399.19
385.787	390.19
386.013	384.19
386.238	412.19
386.463	402.19
386.688	391.19
386.913	383.19
387.138	374.19
387.363	381.19
387.588	391.19
387.813	385.19
388.038	395.19
388.263	372.19
388.488	381.19
388.713	373.19
388.938	388.19
389.163	385.19
389.387	402.19
389.612	389.19
389.837	379.19
390.062	386.19
390.287	390.19
390.512	411.19
390.736	382.19
390.961	385.19
391.186	392.19
391.411	396.19
391.636	395.19
391.86	389.19
392.085	369.19
392.31	397.19
392.534	407.19
392.759	383.19
392.984	377.19
393.208	395.19
393.433	387.19
393.658	399.19
393.882	384.19
394.107	387.19
394.331	379.19
394.556	383.19
394.78	379.19
395.005	370.19
395.229	385.19
395.454	398.19
395.678	395.19
395.903	419.19
396.127	433.19
396.352	418.19
396.576	399.19
396.801	395.19
397.025	389.19
397.249	391.19
397.474	407.19
397.698	420.19
397.922	435.19
398.147	426.19
398.371	450.19
398.595	415.19
398.82	445.19
399.044	403.19
399.268	443.19
399.492	478.19
399.717	497.19
399.941	506.19
400.165	525.19
400.389	527.19
400.613	512.19
400.837	467.19
401.062	462.19
401.286	438.19
401.51	445.19
401.734	411.19
401.958	417.19
402.182	441.19
402.406	453.19
402.63	419.19
402.854	447.19
403.078	434.19
403.302	449.19
403.526	455.19
403.75	461.19
403.974	434.19
404.198	451.19
404.422	438.19
404.645	430.19
404.869	429.19
405.093	473.19
405.317	474.19
405.541	520.19
405.765	485.19
405.988	464.19
406.212	498.19
406.436	496.19
406.66	502.19
406.883	488.19
407.107	485.19
407.331	540.19
407.555	596.19
407.778	610.19
408.002	549.19
408.226	504.19
408.449	494.19
408.673	485.19
408.896	508.19
409.12	575.19
409.344	533.19
409.567	458.19
409.791	445.19
410.014	440.19
410.238	426.19
410.461	458.19
410.685	435.19
410.908	476.19
411.132	469.19
411.355	552.19
411.578	513.19
411.802	434.19
412.025	451.19
412.249	430.19
412.472	449.19
412.695	437.19
412.919	457.19
413.142	446.19
413.365	429.19
413.589	438.19
413.812	422.19
414.035	423.19
414.258	442.19
414.482	411.19
414.705	408.19
414.928	421.19
415.151	411.19
415.374	383.19
415.597	416.19
415.821	395.19
416.044	426.19
416.267	423.19
416.49	407.19
416.713	408.19
416.936	437.19
417.159	422.19
417.382	408.19
417.605	421.19
417.828	443.19
418.051	451.19
418.274	428.19
418.497	410.19
418.72	423.19
418.943	422.19
419.166	430.19
419.389	446.19
419.611	417.19
419.834	458.19
420.057	433.19
420.28	465.19
420.503	418.19
420.726	412.19
420.948	459.19
421.171	504.19
421.394	504.19
421.617	477.19
421.839	420.19
422.062	453.19
422.285	477.19
422.507	510.19
422.73	565.19
422.953	552.19
423.175	507.19
423.398	455.19
423.621	465.19
423.843	468.19
424.066	479.19
424.288	477.19
424.511	500.19
424.733	557.19
424.956	632.19
425.178	589.19
425.401	589.19
425.623	623.19
425.846	524.19
426.068	500.19
426.291	477.19
426.513	486.19
426.735	500.19
426.958	521.19
427.18	595.19
427.402	713.19
427.625	778.19
427.847	682.19
428.069	568.19
428.292	487.19
428.514	478.19
428.736	446.19
428.958	438.19
429.181	452.19
429.403	459.19
429.625	460.19
429.847	498.19
430.069	538.19
430.292	554.19
430.514	471.19
430.736	437.19
430.958	433.19
431.18	429.19
431.402	422.19
431.624	413.19
431.846	419.19
432.068	399.19
432.29	428.19
432.512	419.19
432.734	403.19
432.956	434.19
433.178	445.19
433.4	431.19
433.622	444.19
433.844	419.19
434.066	430.19
434.287	413.19
434.509	439.19
434.731	430.19
434.953	424.19
435.175	452.19
435.397	460.19
435.618	504.19
435.84	531.19
436.062	586.19
436.284	673.19
436.505	579.19
436.727	486.19
436.949	456.19
437.17	453.19
437.392	446.19
437.614	448.19
437.835	496.19
438.057	573.19
438.278	679.19
438.5	670.19
438.721	730.19
438.943	684.19
439.165	545.19
439.386	495.19
439.608	492.19
439.829	500.19
440.05	511.19
440.272	565.19
440.493	516.19
440.715	488.19
440.936	471.19
441.158	443.19
441.379	437.19
441.6	447.19
441.822	490.19
442.043	517.19
442.264	587.19
442.486	622.19
442.707	561.19
442.928	501.19
443.149	492.19
443.371	524.19
443.592	563.19
443.813	636.19
444.034	694.19
444.255	591.19
444.476	501.19
444.698	492.19
444.919	461.19
445.14	569.19
445.361	527.19
445.582	521.19
445.803	565.19
446.024	669.19
446.245	674.19
446.466	619.19
446.687	521.19
446.908	485.19
447.129	453.19
447.35	454.19
447.571	443.19
447.792	439.19
448.013	445.19
448.234	462.19
448.455	489.19
448.675	631.19
448.896	697.19
449.117	614.19
449.338	547.19
449.559	667.19
449.779	783.19
450	622.19
450.221	499.19
450.442	449.19
450.662	443.19
450.883	456.19
451.104	457.19
451.324	430.19
451.545	424.19
451.766	408.19
451.986	397.19
452.207	406.19
452.428	398.19
452.648	391.19
452.869	383.19
453.089	410.19
453.31	411.19
453.53	412.19
453.751	392.19
453.971	396.19
454.192	419.19
454.412	400.19
454.633	414.19
454.853	382.19
455.073	397.19
455.294	417.19
455.514	455.19
455.734	469.19
455.955	392.19
456.175	383.19
456.395	363.19
456.616	380.19
456.836	381.19
457.056	370.19
457.276	369.19
457.497	375.19
457.717	373.19
457.937	381.19
458.157	409.19
458.377	386.19
458.598	398.19
458.818	437.19
459.038	531.19
459.258	556.19
459.478	460.19
459.698	437.19
459.918	407.19
460.138	422.19
460.358	435.19
460.578	423.19
460.798	413.19
461.018	398.19
461.238	426.19
461.458	419.19
461.678	426.19
461.898	417.19
462.118	413.19
462.338	431.19
462.558	412.19
462.777	443.19
462.997	476.19
463.217	445.19
463.437	443.19
463.657	462.19
463.876	446.19
464.096	418.19
464.316	445.19
464.536	439.19
464.755	448.19
464.975	435.19
465.195	454.19
465.414	535.19
465.634	481.19
465.854	437.19
466.073	439.19
466.293	390.19
466.512	403.19
466.732	401.19
466.951	396.19
467.171	390.19
467.391	413.19
467.61	385.19
467.829	397.19
468.049	407.19
468.268	395.19
468.488	413.19
468.707	384.19
468.927	377.19
469.146	394.19
469.365	378.19
469.585	371.19
469.804	409.19
470.023	417.19
470.243	382.19
470.462	415.19
470.681	427.19
470.901	419.19
471.12	419.19
471.339	423.19
471.558	437.19
471.777	414.19
471.997	382.19
472.216	391.19
472.435	394.19
472.654	380.19
472.873	380.19
473.092	400.19
473.311	405.19
473.53	422.19
473.749	402.19
473.968	443.19
474.187	533.19
474.406	579.19
474.625	454.19
474.844	410.19
475.063	397.19
475.282	399.19
475.501	409.19
475.72	405.19
475.939	432.19
476.158	415.19
476.377	410.19
476.596	435.19
476.814	410.19
477.033	431.19
477.252	429.19
477.471	428.19
477.69	442.19
477.908	438.19
478.127	448.19
478.346	435.19
478.564	440.19
478.783	444.19
479.002	435.19
479.22	466.19
479.439	461.19
479.658	464.19
479.876	482.19
480.095	473.19
480.313	497.19
480.532	505.19
480.751	493.19
480.969	490.19
481.188	504.19
481.406	503.19
481.624	483.19
481.843	478.19
482.061	464.19
482.28	475.19
482.498	476.19
482.717	470.19
482.935	494.19
483.153	461.19
483.372	476.19
483.59	483.19
483.808	459.19
484.027	472.19
484.245	449.19
484.463	475.19
484.681	471.19
484.9	481.19
485.118	493.19
485.336	479.19
485.554	481.19
485.772	483.19
485.99	479.19
486.209	501.19
486.427	482.19
486.645	494.19
486.863	513.19
487.081	518.19
487.299	531.19
487.517	515.19
487.735	497.19
487.953	514.19
488.171	510.19
488.389	513.19
488.607	500.19
488.825	517.19
489.043	502.19
489.261	514.19
489.479	510.19
489.696	525.19
489.914	502.19
490.132	532.19
490.35	518.19
490.568	551.19
490.786	549.19
491.003	543.19
491.221	555.19
491.439	567.19
491.657	587.19
491.874	578.19
492.092	576.19
492.31	583.19
492.527	588.19
492.745	571.19
492.963	572.19
493.18	620.19
493.398	589.19
493.615	607.19
493.833	569.19
494.05	600.19
494.268	573.19
494.485	595.19
494.703	589.19
494.92	622.19
495.138	588.19
495.355	608.19
495.573	610.19
495.79	612.19
496.008	617.19
496.225	609.19
496.442	577.19
496.66	612.19
496.877	617.19
497.094	608.19
497.312	608.19
497.529	616.19
497.746	629.19
497.963	643.19
498.181	661.19
498.398	646.19
498.615	646.19
498.832	668.19
499.049	665.19
499.267	684.19
499.484	706.19
499.701	754.19
499.918	747.19
500.135	753.19
500.352	790.19
500.569	785.19
500.786	816.19
501.003	769.19
501.22	766.19
501.437	750.19
501.654	761.19
501.871	755.19
502.088	715.19
