Data from 1989.PennyLincolnUp.Lamp.En5.5.200Scan.071819.P2_HRD10591_17-23-32-972.txt Node
Date: Thu Jul 18 17:23:32 EDT 2019
User: cochatt
Spectrometer: HR+D1059
Trigger mode: 1
Integration Time (sec): 1.000000E-1
Scans to average: 1
Electric dark correction enabled: true
Nonlinearity correction enabled: false
Boxcar width: 0
XAxis mode: Wavelengths
Number of Pixels in Spectrum: 2048
>>>>>Begin Spectral Data<<<<<
223.165	-31.44
223.4	-31.44
223.635	-31.44
223.869	-24.44
224.104	-29.44
224.338	-8.44
224.573	1.56
224.808	-6.44
225.042	-9.44
225.277	-1.44
225.511	-1.44
225.746	7.56
225.98	7.56
226.215	2.56
226.449	5.56
226.683	19.56
226.918	40.56
227.152	27.56
227.387	37.56
227.621	38.56
227.856	45.56
228.09	45.56
228.324	37.56
228.559	48.56
228.793	61.56
229.027	100.56
229.262	120.56
229.496	120.56
229.73	120.56
229.964	147.56
230.199	131.56
230.433	111.56
230.667	116.56
230.901	108.56
231.136	112.56
231.37	118.56
231.604	103.56
231.838	115.56
232.072	110.56
232.306	120.56
232.541	120.56
232.775	123.56
233.009	110.56
233.243	133.56
233.477	102.56
233.711	117.56
233.945	91.56
234.179	119.56
234.413	106.56
234.647	93.56
234.881	112.56
235.115	115.56
235.349	121.56
235.583	121.56
235.817	116.56
236.051	126.56
236.285	110.56
236.519	115.56
236.753	132.56
236.987	144.56
237.221	174.56
237.455	234.56
237.689	167.56
237.922	138.56
238.156	134.56
238.39	103.56
238.624	118.56
238.858	113.56
239.091	110.56
239.325	128.56
239.559	127.56
239.793	124.56
240.027	128.56
240.26	136.56
240.494	147.56
240.728	152.56
240.961	149.56
241.195	143.56
241.429	158.56
241.662	144.56
241.896	136.56
242.13	136.56
242.363	105.56
242.597	130.56
242.83	123.56
243.064	135.56
243.298	136.56
243.531	136.56
243.765	127.56
243.998	134.56
244.232	141.56
244.465	138.56
244.699	141.56
244.932	154.56
245.166	135.56
245.399	150.56
245.633	148.56
245.866	139.56
246.099	144.56
246.333	138.56
246.566	165.56
246.8	160.56
247.033	149.56
247.266	155.56
247.5	169.56
247.733	179.56
247.966	174.56
248.2	176.56
248.433	189.56
248.666	164.56
248.899	182.56
249.133	207.56
249.366	214.56
249.599	200.56
249.832	190.56
250.066	171.56
250.299	180.56
250.532	184.56
250.765	198.56
250.998	196.56
251.231	215.56
251.465	213.56
251.698	211.56
251.931	187.56
252.164	205.56
252.397	192.56
252.63	198.56
252.863	201.56
253.096	220.56
253.329	243.56
253.562	225.56
253.795	224.56
254.028	223.56
254.261	216.56
254.494	236.56
254.727	268.56
254.96	272.56
255.193	281.56
255.426	264.56
255.659	241.56
255.892	230.56
256.124	215.56
256.357	231.56
256.59	222.56
256.823	222.56
257.056	210.56
257.289	224.56
257.521	203.56
257.754	237.56
257.987	201.56
258.22	207.56
258.452	196.56
258.685	226.56
258.918	216.56
259.151	210.56
259.383	219.56
259.616	210.56
259.849	240.56
260.081	241.56
260.314	269.56
260.547	276.56
260.779	238.56
261.012	238.56
261.244	247.56
261.477	228.56
261.71	227.56
261.942	220.56
262.175	241.56
262.407	238.56
262.64	219.56
262.872	208.56
263.105	226.56
263.337	238.56
263.57	212.56
263.802	213.56
264.035	210.56
264.267	215.56
264.499	207.56
264.732	196.56
264.964	227.56
265.197	218.56
265.429	222.56
265.661	213.56
265.894	229.56
266.126	210.56
266.358	233.56
266.591	224.56
266.823	254.56
267.055	242.56
267.287	241.56
267.52	228.56
267.752	231.56
267.984	244.56
268.216	214.56
268.448	215.56
268.681	243.56
268.913	260.56
269.145	262.56
269.377	264.56
269.609	272.56
269.841	272.56
270.073	278.56
270.306	276.56
270.538	319.56
270.77	344.56
271.002	306.56
271.234	299.56
271.466	307.56
271.698	314.56
271.93	315.56
272.162	310.56
272.394	325.56
272.626	301.56
272.858	281.56
273.09	292.56
273.322	281.56
273.553	287.56
273.785	290.56
274.017	264.56
274.249	267.56
274.481	274.56
274.713	264.56
274.945	281.56
275.176	263.56
275.408	274.56
275.64	266.56
275.872	254.56
276.104	273.56
276.335	258.56
276.567	277.56
276.799	302.56
277.031	297.56
277.262	318.56
277.494	297.56
277.726	331.56
277.957	295.56
278.189	290.56
278.421	280.56
278.652	266.56
278.884	268.56
279.115	267.56
279.347	259.56
279.579	274.56
279.81	275.56
280.042	281.56
280.273	274.56
280.505	268.56
280.736	262.56
280.968	261.56
281.199	266.56
281.431	276.56
281.662	272.56
281.894	285.56
282.125	276.56
282.356	284.56
282.588	287.56
282.819	313.56
283.051	283.56
283.282	267.56
283.513	278.56
283.745	274.56
283.976	282.56
284.207	286.56
284.439	280.56
284.67	302.56
284.901	288.56
285.132	286.56
285.364	283.56
285.595	285.56
285.826	277.56
286.057	299.56
286.288	291.56
286.52	267.56
286.751	280.56
286.982	307.56
287.213	291.56
287.444	291.56
287.675	299.56
287.906	290.56
288.138	295.56
288.369	306.56
288.6	314.56
288.831	298.56
289.062	287.56
289.293	297.56
289.524	305.56
289.755	307.56
289.986	297.56
290.217	302.56
290.448	295.56
290.679	294.56
290.91	285.56
291.141	291.56
291.371	280.56
291.602	294.56
291.833	314.56
292.064	281.56
292.295	307.56
292.526	303.56
292.757	317.56
292.987	306.56
293.218	289.56
293.449	282.56
293.68	287.56
293.91	284.56
294.141	298.56
294.372	284.56
294.603	289.56
294.833	292.56
295.064	309.56
295.295	295.56
295.525	284.56
295.756	311.56
295.987	323.56
296.217	319.56
296.448	304.56
296.679	312.56
296.909	288.56
297.14	308.56
297.37	306.56
297.601	295.56
297.831	307.56
298.062	311.56
298.292	302.56
298.523	315.56
298.753	332.56
298.984	336.56
299.214	322.56
299.445	299.56
299.675	304.56
299.905	328.56
300.136	297.56
300.366	311.56
300.597	330.56
300.827	312.56
301.057	328.56
301.288	339.56
301.518	334.56
301.748	321.56
301.979	316.56
302.209	323.56
302.439	334.56
302.669	346.56
302.9	311.56
303.13	335.56
303.36	331.56
303.59	333.56
303.82	336.56
304.051	347.56
304.281	332.56
304.511	315.56
304.741	319.56
304.971	315.56
305.201	318.56
305.431	328.56
305.661	323.56
305.891	325.56
306.121	340.56
306.352	318.56
306.582	344.56
306.812	337.56
307.042	315.56
307.272	354.56
307.502	322.56
307.731	346.56
307.961	359.56
308.191	337.56
308.421	328.56
308.651	354.56
308.881	352.56
309.111	346.56
309.341	368.56
309.571	372.56
309.8	368.56
310.03	375.56
310.26	391.56
310.49	361.56
310.72	346.56
310.949	386.56
311.179	408.56
311.409	407.56
311.639	371.56
311.868	378.56
312.098	395.56
312.328	385.56
312.557	415.56
312.787	416.56
313.017	400.56
313.246	388.56
313.476	383.56
313.706	362.56
313.935	386.56
314.165	399.56
314.394	403.56
314.624	407.56
314.853	393.56
315.083	378.56
315.312	409.56
315.542	357.56
315.771	358.56
316.001	389.56
316.23	384.56
316.46	376.56
316.689	379.56
316.919	375.56
317.148	400.56
317.377	385.56
317.607	375.56
317.836	395.56
318.065	382.56
318.295	379.56
318.524	373.56
318.753	371.56
318.983	371.56
319.212	372.56
319.441	388.56
319.67	384.56
319.9	382.56
320.129	375.56
320.358	382.56
320.587	381.56
320.816	373.56
321.046	408.56
321.275	416.56
321.504	410.56
321.733	397.56
321.962	397.56
322.191	426.56
322.42	420.56
322.649	416.56
322.878	457.56
323.108	458.56
323.337	474.56
323.566	504.56
323.795	541.56
324.024	560.56
324.253	669.56
324.482	954.56
324.71	1447.56
324.939	2150.56
325.168	1825.56
325.397	942.56
325.626	662.56
325.855	543.56
326.084	484.56
326.313	487.56
326.542	479.56
326.77	538.56
326.999	637.56
327.228	848.56
327.457	1304.56
327.686	1639.56
327.914	1042.56
328.143	694.56
328.372	600.56
328.6	564.56
328.829	544.56
329.058	552.56
329.287	540.56
329.515	531.56
329.744	498.56
329.972	473.56
330.201	468.56
330.43	497.56
330.658	528.56
330.887	583.56
331.115	553.56
331.344	486.56
331.572	466.56
331.801	480.56
332.03	480.56
332.258	448.56
332.486	480.56
332.715	433.56
332.943	450.56
333.172	451.56
333.4	441.56
333.629	449.56
333.857	439.56
334.085	457.56
334.314	452.56
334.542	451.56
334.771	442.56
334.999	433.56
335.227	439.56
335.455	447.56
335.684	439.56
335.912	418.56
336.14	411.56
336.369	430.56
336.597	415.56
336.825	443.56
337.053	436.56
337.281	428.56
337.51	450.56
337.738	438.56
337.966	414.56
338.194	421.56
338.422	430.56
338.65	434.56
338.878	428.56
339.106	435.56
339.334	444.56
339.562	401.56
339.79	436.56
340.018	399.56
340.246	407.56
340.474	403.56
340.702	418.56
340.93	414.56
341.158	430.56
341.386	423.56
341.614	416.56
341.842	432.56
342.07	422.56
342.298	425.56
342.526	402.56
342.754	407.56
342.981	401.56
343.209	400.56
343.437	397.56
343.665	411.56
343.893	422.56
344.12	430.56
344.348	408.56
344.576	404.56
344.804	424.56
345.031	439.56
345.259	437.56
345.487	421.56
345.714	430.56
345.942	401.56
346.17	420.56
346.397	408.56
346.625	419.56
346.853	410.56
347.08	399.56
347.308	411.56
347.535	409.56
347.763	416.56
347.99	436.56
348.218	421.56
348.445	421.56
348.673	418.56
348.9	394.56
349.128	409.56
349.355	397.56
349.583	398.56
349.81	386.56
350.037	392.56
350.265	380.56
350.492	392.56
350.72	414.56
350.947	404.56
351.174	410.56
351.402	418.56
351.629	396.56
351.856	406.56
352.083	404.56
352.311	435.56
352.538	405.56
352.765	416.56
352.992	426.56
353.22	434.56
353.447	392.56
353.674	392.56
353.901	396.56
354.128	400.56
354.355	373.56
354.583	390.56
354.81	370.56
355.037	407.56
355.264	378.56
355.491	375.56
355.718	380.56
355.945	363.56
356.172	388.56
356.399	388.56
356.626	379.56
356.853	367.56
357.08	384.56
357.307	394.56
357.534	371.56
357.761	368.56
357.988	360.56
358.215	386.56
358.441	362.56
358.668	380.56
358.895	384.56
359.122	394.56
359.349	396.56
359.576	406.56
359.802	419.56
360.029	461.56
360.256	452.56
360.483	436.56
360.709	412.56
360.936	411.56
361.163	404.56
361.39	402.56
361.616	405.56
361.843	416.56
362.07	415.56
362.296	408.56
362.523	404.56
362.749	392.56
362.976	384.56
363.203	388.56
363.429	382.56
363.656	376.56
363.882	377.56
364.109	396.56
364.335	405.56
364.562	366.56
364.788	389.56
365.015	392.56
365.241	359.56
365.468	394.56
365.694	396.56
365.92	404.56
366.147	386.56
366.373	394.56
366.599	374.56
366.826	391.56
367.052	368.56
367.278	376.56
367.505	379.56
367.731	411.56
367.957	370.56
368.184	375.56
368.41	384.56
368.636	371.56
368.862	399.56
369.089	385.56
369.315	379.56
369.541	374.56
369.767	381.56
369.993	406.56
370.219	387.56
370.445	371.56
370.672	396.56
370.898	377.56
371.124	370.56
371.35	387.56
371.576	373.56
371.802	359.56
372.028	372.56
372.254	387.56
372.48	382.56
372.706	390.56
372.932	372.56
373.158	388.56
373.384	392.56
373.61	367.56
373.835	379.56
374.061	383.56
374.287	377.56
374.513	369.56
374.739	378.56
374.965	387.56
375.191	384.56
375.416	394.56
375.642	377.56
375.868	400.56
376.094	378.56
376.319	378.56
376.545	383.56
376.771	375.56
376.997	372.56
377.222	356.56
377.448	360.56
377.674	383.56
377.899	383.56
378.125	368.56
378.35	372.56
378.576	375.56
378.802	362.56
379.027	386.56
379.253	390.56
379.478	362.56
379.704	360.56
379.929	364.56
380.155	392.56
380.38	377.56
380.606	378.56
380.831	376.56
381.057	379.56
381.282	363.56
381.507	368.56
381.733	411.56
381.958	383.56
382.184	386.56
382.409	375.56
382.634	384.56
382.86	373.56
383.085	377.56
383.31	377.56
383.535	396.56
383.761	388.56
383.986	395.56
384.211	407.56
384.436	406.56
384.662	410.56
384.887	402.56
385.112	397.56
385.337	390.56
385.562	402.56
385.787	394.56
386.013	420.56
386.238	417.56
386.463	421.56
386.688	388.56
386.913	384.56
387.138	390.56
387.363	402.56
387.588	404.56
387.813	419.56
388.038	393.56
388.263	408.56
388.488	408.56
388.713	407.56
388.938	410.56
389.163	413.56
389.387	396.56
389.612	392.56
389.837	392.56
390.062	408.56
390.287	395.56
390.512	404.56
390.736	419.56
390.961	394.56
391.186	415.56
391.411	393.56
391.636	395.56
391.86	404.56
392.085	395.56
392.31	387.56
392.534	398.56
392.759	423.56
392.984	410.56
393.208	418.56
393.433	399.56
393.658	406.56
393.882	400.56
394.107	402.56
394.331	415.56
394.556	397.56
394.78	387.56
395.005	400.56
395.229	414.56
395.454	414.56
395.678	433.56
395.903	407.56
396.127	437.56
396.352	436.56
396.576	409.56
396.801	414.56
397.025	420.56
397.249	412.56
397.474	441.56
397.698	405.56
397.922	440.56
398.147	446.56
398.371	458.56
398.595	425.56
398.82	441.56
399.044	472.56
399.268	450.56
399.492	483.56
399.717	508.56
399.941	538.56
400.165	532.56
400.389	550.56
400.613	496.56
400.837	473.56
401.062	482.56
401.286	480.56
401.51	475.56
401.734	453.56
401.958	451.56
402.182	448.56
402.406	462.56
402.63	469.56
402.854	458.56
403.078	488.56
403.302	450.56
403.526	465.56
403.75	458.56
403.974	475.56
404.198	478.56
404.422	470.56
404.645	463.56
404.869	464.56
405.093	483.56
405.317	503.56
405.541	520.56
405.765	478.56
405.988	495.56
406.212	489.56
406.436	518.56
406.66	536.56
406.883	513.56
407.107	526.56
407.331	552.56
407.555	627.56
407.778	612.56
408.002	570.56
408.226	550.56
408.449	497.56
408.673	518.56
408.896	539.56
409.12	560.56
409.344	535.56
409.567	498.56
409.791	495.56
410.014	473.56
410.238	476.56
410.461	447.56
410.685	474.56
410.908	474.56
411.132	512.56
411.355	560.56
411.578	518.56
411.802	471.56
412.025	457.56
412.249	460.56
412.472	472.56
412.695	467.56
412.919	480.56
413.142	462.56
413.365	446.56
413.589	451.56
413.812	427.56
414.035	446.56
414.258	458.56
414.482	436.56
414.705	418.56
414.928	440.56
415.151	455.56
415.374	442.56
415.597	424.56
415.821	444.56
416.044	431.56
416.267	438.56
416.49	438.56
416.713	440.56
416.936	442.56
417.159	439.56
417.382	456.56
417.605	434.56
417.828	454.56
418.051	449.56
418.274	471.56
418.497	440.56
418.72	418.56
418.943	455.56
419.166	452.56
419.389	463.56
419.611	458.56
419.834	462.56
420.057	440.56
420.28	468.56
420.503	447.56
420.726	453.56
420.948	458.56
421.171	517.56
421.394	539.56
421.617	487.56
421.839	469.56
422.062	462.56
422.285	480.56
422.507	541.56
422.73	584.56
422.953	568.56
423.175	511.56
423.398	469.56
423.621	479.56
423.843	510.56
424.066	502.56
424.288	521.56
424.511	512.56
424.733	585.56
424.956	640.56
425.178	611.56
425.401	614.56
425.623	615.56
425.846	552.56
426.068	500.56
426.291	495.56
426.513	486.56
426.735	508.56
426.958	530.56
427.18	606.56
427.402	758.56
427.625	812.56
427.847	716.56
428.069	611.56
428.292	519.56
428.514	475.56
428.736	483.56
428.958	470.56
429.181	466.56
429.403	453.56
429.625	463.56
429.847	486.56
430.069	574.56
430.292	557.56
430.514	503.56
430.736	443.56
430.958	449.56
431.18	448.56
431.402	434.56
431.624	420.56
431.846	400.56
432.068	417.56
432.29	448.56
432.512	425.56
432.734	439.56
432.956	449.56
433.178	458.56
433.4	447.56
433.622	430.56
433.844	424.56
434.066	449.56
434.287	453.56
434.509	431.56
434.731	455.56
434.953	466.56
435.175	450.56
435.397	488.56
435.618	480.56
435.84	526.56
436.062	644.56
436.284	703.56
436.505	593.56
436.727	535.56
436.949	500.56
437.17	471.56
437.392	436.56
437.614	462.56
437.835	499.56
438.057	597.56
438.278	721.56
438.5	688.56
438.721	755.56
438.943	722.56
439.165	564.56
439.386	522.56
439.608	514.56
439.829	475.56
440.05	514.56
440.272	580.56
440.493	529.56
440.715	529.56
440.936	469.56
441.158	467.56
441.379	447.56
441.6	465.56
441.822	480.56
442.043	521.56
442.264	591.56
442.486	657.56
442.707	538.56
442.928	514.56
443.149	520.56
443.371	538.56
443.592	592.56
443.813	677.56
444.034	710.56
444.255	582.56
444.476	528.56
444.698	491.56
444.919	479.56
445.14	577.56
445.361	560.56
445.582	542.56
445.803	607.56
446.024	691.56
446.245	690.56
446.466	640.56
446.687	561.56
446.908	498.56
447.129	484.56
447.35	461.56
447.571	467.56
447.792	455.56
448.013	473.56
448.234	471.56
448.455	539.56
448.675	639.56
448.896	766.56
449.117	642.56
449.338	599.56
449.559	697.56
449.779	806.56
450	636.56
450.221	531.56
450.442	472.56
450.662	455.56
450.883	478.56
451.104	436.56
451.324	452.56
451.545	444.56
451.766	423.56
451.986	393.56
452.207	413.56
452.428	391.56
452.648	426.56
452.869	404.56
453.089	422.56
453.31	423.56
453.53	422.56
453.751	420.56
453.971	410.56
454.192	420.56
454.412	404.56
454.633	399.56
454.853	411.56
455.073	404.56
455.294	434.56
455.514	487.56
455.734	489.56
455.955	436.56
456.175	404.56
456.395	375.56
456.616	396.56
456.836	402.56
457.056	382.56
457.276	382.56
457.497	379.56
457.717	394.56
457.937	409.56
458.157	413.56
458.377	404.56
458.598	421.56
458.818	453.56
459.038	552.56
459.258	576.56
459.478	484.56
459.698	430.56
459.918	430.56
460.138	414.56
460.358	437.56
460.578	420.56
460.798	423.56
461.018	440.56
461.238	417.56
461.458	427.56
461.678	434.56
461.898	411.56
462.118	440.56
462.338	428.56
462.558	446.56
462.777	455.56
462.997	446.56
463.217	464.56
463.437	489.56
463.657	472.56
463.876	477.56
464.096	478.56
464.316	455.56
464.536	453.56
464.755	460.56
464.975	459.56
465.195	499.56
465.414	558.56
465.634	484.56
465.854	473.56
466.073	442.56
466.293	420.56
466.512	417.56
466.732	395.56
466.951	406.56
467.171	392.56
467.391	432.56
467.61	422.56
467.829	430.56
468.049	419.56
468.268	396.56
468.488	398.56
468.707	410.56
468.927	383.56
469.146	382.56
469.365	404.56
469.585	390.56
469.804	427.56
470.023	398.56
470.243	434.56
470.462	440.56
470.681	435.56
470.901	448.56
471.12	425.56
471.339	406.56
471.558	415.56
471.777	419.56
471.997	420.56
472.216	409.56
472.435	420.56
472.654	423.56
472.873	411.56
473.092	411.56
473.311	421.56
473.53	406.56
473.749	424.56
473.968	460.56
474.187	566.56
474.406	596.56
474.625	482.56
474.844	435.56
475.063	425.56
475.282	427.56
475.501	413.56
475.72	437.56
475.939	442.56
476.158	441.56
476.377	431.56
476.596	428.56
476.814	436.56
477.033	442.56
477.252	451.56
477.471	453.56
477.69	456.56
477.908	430.56
478.127	472.56
478.346	473.56
478.564	448.56
478.783	463.56
479.002	480.56
479.22	464.56
479.439	489.56
479.658	506.56
479.876	501.56
480.095	513.56
480.313	526.56
480.532	514.56
480.751	499.56
480.969	522.56
481.188	514.56
481.406	528.56
481.624	501.56
481.843	503.56
482.061	470.56
482.28	487.56
482.498	492.56
482.717	484.56
482.935	496.56
483.153	498.56
483.372	489.56
483.59	495.56
483.808	487.56
484.027	506.56
484.245	497.56
484.463	486.56
484.681	510.56
484.9	502.56
485.118	510.56
485.336	483.56
485.554	522.56
485.772	528.56
485.99	509.56
486.209	502.56
486.427	527.56
486.645	525.56
486.863	534.56
487.081	533.56
487.299	541.56
487.517	528.56
487.735	522.56
487.953	518.56
488.171	533.56
488.389	535.56
488.607	548.56
488.825	542.56
489.043	514.56
489.261	533.56
489.479	547.56
489.696	554.56
489.914	542.56
490.132	562.56
490.35	543.56
490.568	543.56
490.786	556.56
491.003	589.56
491.221	586.56
491.439	595.56
491.657	574.56
491.874	599.56
492.092	584.56
492.31	606.56
492.527	602.56
492.745	607.56
492.963	606.56
493.18	618.56
493.398	629.56
493.615	632.56
493.833	612.56
494.05	615.56
494.268	611.56
494.485	616.56
494.703	629.56
494.92	621.56
495.138	624.56
495.355	609.56
495.573	620.56
495.79	634.56
496.008	633.56
496.225	599.56
496.442	617.56
496.66	639.56
496.877	631.56
497.094	635.56
497.312	649.56
497.529	664.56
497.746	660.56
497.963	656.56
498.181	675.56
498.398	669.56
498.615	677.56
498.832	694.56
499.049	706.56
499.267	701.56
499.484	724.56
499.701	745.56
499.918	767.56
500.135	819.56
500.352	827.56
500.569	836.56
500.786	832.56
501.003	832.56
501.22	814.56
501.437	818.56
501.654	799.56
501.871	793.56
502.088	757.56
