Data from 1989.PennyLincolnUp.Lamp.En5.5.200Scan.071819.P2_HRD10591_17-26-25-974.txt Node
Date: Thu Jul 18 17:26:25 EDT 2019
User: cochatt
Spectrometer: HR+D1059
Trigger mode: 1
Integration Time (sec): 1.000000E-1
Scans to average: 1
Electric dark correction enabled: true
Nonlinearity correction enabled: false
Boxcar width: 0
XAxis mode: Wavelengths
Number of Pixels in Spectrum: 2048
>>>>>Begin Spectral Data<<<<<
223.165	-6.69
223.4	-6.69
223.635	-6.69
223.869	-16.69
224.104	-13.69
224.338	-25.69
224.573	-11.69
224.808	-11.69
225.042	-18.69
225.277	-7.69
225.511	0.31
225.746	3.31
225.98	6.31
226.215	18.31
226.449	6.31
226.683	25.31
226.918	32.31
227.152	20.31
227.387	37.31
227.621	37.31
227.856	50.31
228.09	41.31
228.324	36.31
228.559	51.31
228.793	66.31
229.027	94.31
229.262	105.31
229.496	120.31
229.73	138.31
229.964	164.31
230.199	138.31
230.433	113.31
230.667	102.31
230.901	120.31
231.136	112.31
231.37	115.31
231.604	103.31
231.838	109.31
232.072	106.31
232.306	103.31
232.541	122.31
232.775	117.31
233.009	104.31
233.243	107.31
233.477	121.31
233.711	120.31
233.945	126.31
234.179	111.31
234.413	135.31
234.647	123.31
234.881	120.31
235.115	127.31
235.349	118.31
235.583	126.31
235.817	124.31
236.051	115.31
236.285	124.31
236.519	129.31
236.753	115.31
236.987	137.31
237.221	178.31
237.455	249.31
237.689	214.31
237.922	163.31
238.156	154.31
238.39	131.31
238.624	130.31
238.858	145.31
239.091	114.31
239.325	130.31
239.559	133.31
239.793	138.31
240.027	135.31
240.26	146.31
240.494	166.31
240.728	156.31
240.961	135.31
241.195	148.31
241.429	130.31
241.662	136.31
241.896	135.31
242.13	129.31
242.363	127.31
242.597	137.31
242.83	131.31
243.064	154.31
243.298	134.31
243.531	153.31
243.765	121.31
243.998	140.31
244.232	160.31
244.465	162.31
244.699	152.31
244.932	147.31
245.166	148.31
245.399	161.31
245.633	150.31
245.866	154.31
246.099	154.31
246.333	163.31
246.566	166.31
246.8	153.31
247.033	169.31
247.266	167.31
247.5	166.31
247.733	192.31
247.966	192.31
248.2	175.31
248.433	190.31
248.666	182.31
248.899	196.31
249.133	204.31
249.366	214.31
249.599	222.31
249.832	207.31
250.066	204.31
250.299	208.31
250.532	229.31
250.765	235.31
250.998	257.31
251.231	244.31
251.465	240.31
251.698	236.31
251.931	230.31
252.164	218.31
252.397	202.31
252.63	229.31
252.863	238.31
253.096	233.31
253.329	250.31
253.562	232.31
253.795	246.31
254.028	254.31
254.261	235.31
254.494	216.31
254.727	274.31
254.96	316.31
255.193	310.31
255.426	288.31
255.659	268.31
255.892	267.31
256.124	307.31
256.357	308.31
256.59	291.31
256.823	263.31
257.056	247.31
257.289	239.31
257.521	235.31
257.754	237.31
257.987	230.31
258.22	211.31
258.452	245.31
258.685	215.31
258.918	235.31
259.151	229.31
259.383	244.31
259.616	264.31
259.849	239.31
260.081	249.31
260.314	290.31
260.547	279.31
260.779	279.31
261.012	275.31
261.244	259.31
261.477	268.31
261.71	251.31
261.942	250.31
262.175	265.31
262.407	259.31
262.64	247.31
262.872	242.31
263.105	232.31
263.337	233.31
263.57	234.31
263.802	228.31
264.035	229.31
264.267	218.31
264.499	220.31
264.732	248.31
264.964	226.31
265.197	229.31
265.429	230.31
265.661	236.31
265.894	227.31
266.126	241.31
266.358	220.31
266.591	228.31
266.823	246.31
267.055	246.31
267.287	238.31
267.52	239.31
267.752	253.31
267.984	241.31
268.216	248.31
268.448	250.31
268.681	265.31
268.913	256.31
269.145	297.31
269.377	310.31
269.609	307.31
269.841	282.31
270.073	296.31
270.306	338.31
270.538	368.31
270.77	350.31
271.002	346.31
271.234	320.31
271.466	324.31
271.698	327.31
271.93	333.31
272.162	376.31
272.394	369.31
272.626	338.31
272.858	352.31
273.09	309.31
273.322	283.31
273.553	297.31
273.785	275.31
274.017	287.31
274.249	303.31
274.481	287.31
274.713	290.31
274.945	299.31
275.176	315.31
275.408	300.31
275.64	286.31
275.872	285.31
276.104	292.31
276.335	298.31
276.567	299.31
276.799	304.31
277.031	332.31
277.262	361.31
277.494	353.31
277.726	347.31
277.957	323.31
278.189	326.31
278.421	296.31
278.652	298.31
278.884	311.31
279.115	294.31
279.347	303.31
279.579	283.31
279.81	313.31
280.042	290.31
280.273	292.31
280.505	298.31
280.736	289.31
280.968	280.31
281.199	284.31
281.431	290.31
281.662	296.31
281.894	291.31
282.125	309.31
282.356	295.31
282.588	337.31
282.819	353.31
283.051	318.31
283.282	298.31
283.513	299.31
283.745	297.31
283.976	303.31
284.207	307.31
284.439	296.31
284.67	304.31
284.901	303.31
285.132	299.31
285.364	288.31
285.595	295.31
285.826	294.31
286.057	299.31
286.288	294.31
286.52	315.31
286.751	306.31
286.982	308.31
287.213	315.31
287.444	327.31
287.675	331.31
287.906	324.31
288.138	322.31
288.369	333.31
288.6	336.31
288.831	352.31
289.062	335.31
289.293	324.31
289.524	312.31
289.755	302.31
289.986	309.31
290.217	317.31
290.448	310.31
290.679	301.31
290.91	306.31
291.141	319.31
291.371	314.31
291.602	304.31
291.833	303.31
292.064	317.31
292.295	328.31
292.526	319.31
292.757	307.31
292.987	298.31
293.218	319.31
293.449	312.31
293.68	310.31
293.91	299.31
294.141	299.31
294.372	294.31
294.603	331.31
294.833	319.31
295.064	308.31
295.295	315.31
295.525	311.31
295.756	313.31
295.987	328.31
296.217	350.31
296.448	340.31
296.679	356.31
296.909	351.31
297.14	318.31
297.37	339.31
297.601	322.31
297.831	316.31
298.062	331.31
298.292	315.31
298.523	314.31
298.753	332.31
298.984	324.31
299.214	324.31
299.445	324.31
299.675	327.31
299.905	337.31
300.136	341.31
300.366	338.31
300.597	327.31
300.827	349.31
301.057	362.31
301.288	344.31
301.518	335.31
301.748	339.31
301.979	330.31
302.209	347.31
302.439	330.31
302.669	353.31
302.9	363.31
303.13	336.31
303.36	355.31
303.59	358.31
303.82	366.31
304.051	375.31
304.281	366.31
304.511	357.31
304.741	348.31
304.971	350.31
305.201	342.31
305.431	351.31
305.661	362.31
305.891	361.31
306.121	351.31
306.352	354.31
306.582	345.31
306.812	340.31
307.042	357.31
307.272	350.31
307.502	363.31
307.731	367.31
307.961	346.31
308.191	371.31
308.421	358.31
308.651	352.31
308.881	368.31
309.111	354.31
309.341	375.31
309.571	371.31
309.8	389.31
310.03	393.31
310.26	412.31
310.49	404.31
310.72	407.31
310.949	414.31
311.179	446.31
311.409	425.31
311.639	404.31
311.868	393.31
312.098	406.31
312.328	418.31
312.557	436.31
312.787	448.31
313.017	460.31
313.246	455.31
313.476	412.31
313.706	430.31
313.935	408.31
314.165	418.31
314.394	420.31
314.624	447.31
314.853	419.31
315.083	430.31
315.312	408.31
315.542	405.31
315.771	395.31
316.001	386.31
316.23	424.31
316.46	410.31
316.689	403.31
316.919	388.31
317.148	424.31
317.377	441.31
317.607	420.31
317.836	417.31
318.065	415.31
318.295	404.31
318.524	411.31
318.753	402.31
318.983	421.31
319.212	418.31
319.441	414.31
319.67	422.31
319.9	394.31
320.129	421.31
320.358	421.31
320.587	417.31
320.816	416.31
321.046	449.31
321.275	437.31
321.504	425.31
321.733	427.31
321.962	444.31
322.191	450.31
322.42	473.31
322.649	492.31
322.878	527.31
323.108	516.31
323.337	545.31
323.566	570.31
323.795	608.31
324.024	673.31
324.253	814.31
324.482	1154.31
324.71	1794.31
324.939	2579.31
325.168	2253.31
325.397	1149.31
325.626	787.31
325.855	628.31
326.084	582.31
326.313	566.31
326.542	580.31
326.77	662.31
326.999	747.31
327.228	1052.31
327.457	1561.31
327.686	1904.31
327.914	1312.31
328.143	884.31
328.372	778.31
328.6	685.31
328.829	655.31
329.058	694.31
329.287	702.31
329.515	609.31
329.744	610.31
329.972	586.31
330.201	644.31
330.43	708.31
330.658	705.31
330.887	715.31
331.115	683.31
331.344	607.31
331.572	547.31
331.801	556.31
332.03	537.31
332.258	507.31
332.486	512.31
332.715	507.31
332.943	477.31
333.172	506.31
333.4	506.31
333.629	496.31
333.857	548.31
334.085	559.31
334.314	614.31
334.542	691.31
334.771	712.31
334.999	628.31
335.227	548.31
335.455	512.31
335.684	496.31
335.912	510.31
336.14	472.31
336.369	492.31
336.597	499.31
336.825	480.31
337.053	491.31
337.281	463.31
337.51	475.31
337.738	457.31
337.966	466.31
338.194	465.31
338.422	475.31
338.65	456.31
338.878	457.31
339.106	465.31
339.334	471.31
339.562	447.31
339.79	466.31
340.018	457.31
340.246	448.31
340.474	464.31
340.702	454.31
340.93	454.31
341.158	448.31
341.386	461.31
341.614	462.31
341.842	439.31
342.07	435.31
342.298	447.31
342.526	422.31
342.754	443.31
342.981	441.31
343.209	408.31
343.437	427.31
343.665	465.31
343.893	431.31
344.12	442.31
344.348	439.31
344.576	455.31
344.804	449.31
345.031	473.31
345.259	480.31
345.487	457.31
345.714	454.31
345.942	442.31
346.17	458.31
346.397	420.31
346.625	439.31
346.853	434.31
347.08	408.31
347.308	434.31
347.535	447.31
347.763	462.31
347.99	439.31
348.218	455.31
348.445	459.31
348.673	471.31
348.9	420.31
349.128	427.31
349.355	414.31
349.583	421.31
349.81	428.31
350.037	419.31
350.265	422.31
350.492	417.31
350.72	419.31
350.947	425.31
351.174	451.31
351.402	443.31
351.629	447.31
351.856	452.31
352.083	433.31
352.311	451.31
352.538	450.31
352.765	451.31
352.992	454.31
353.22	430.31
353.447	439.31
353.674	418.31
353.901	424.31
354.128	396.31
354.355	397.31
354.583	418.31
354.81	395.31
355.037	400.31
355.264	401.31
355.491	380.31
355.718	395.31
355.945	383.31
356.172	380.31
356.399	384.31
356.626	373.31
356.853	414.31
357.08	389.31
357.307	387.31
357.534	363.31
357.761	382.31
357.988	386.31
358.215	412.31
358.441	401.31
358.668	404.31
358.895	395.31
359.122	404.31
359.349	404.31
359.576	427.31
359.802	457.31
360.029	458.31
360.256	505.31
360.483	468.31
360.709	430.31
360.936	407.31
361.163	424.31
361.39	439.31
361.616	436.31
361.843	416.31
362.07	417.31
362.296	417.31
362.523	420.31
362.749	411.31
362.976	420.31
363.203	436.31
363.429	417.31
363.656	423.31
363.882	387.31
364.109	391.31
364.335	391.31
364.562	424.31
364.788	408.31
365.015	401.31
365.241	410.31
365.468	421.31
365.694	421.31
365.92	419.31
366.147	405.31
366.373	397.31
366.599	409.31
366.826	410.31
367.052	397.31
367.278	410.31
367.505	402.31
367.731	396.31
367.957	394.31
368.184	390.31
368.41	393.31
368.636	403.31
368.862	417.31
369.089	407.31
369.315	412.31
369.541	398.31
369.767	414.31
369.993	370.31
370.219	415.31
370.445	386.31
370.672	372.31
370.898	390.31
371.124	390.31
371.35	389.31
371.576	374.31
371.802	379.31
372.028	394.31
372.254	393.31
372.48	407.31
372.706	390.31
372.932	384.31
373.158	398.31
373.384	403.31
373.61	390.31
373.835	378.31
374.061	393.31
374.287	400.31
374.513	390.31
374.739	394.31
374.965	409.31
375.191	373.31
375.416	399.31
375.642	402.31
375.868	384.31
376.094	395.31
376.319	392.31
376.545	400.31
376.771	402.31
376.997	373.31
377.222	395.31
377.448	378.31
377.674	401.31
377.899	381.31
378.125	372.31
378.35	383.31
378.576	366.31
378.802	386.31
379.027	383.31
379.253	383.31
379.478	382.31
379.704	389.31
379.929	370.31
380.155	368.31
380.38	368.31
380.606	385.31
380.831	368.31
381.057	406.31
381.282	376.31
381.507	397.31
381.733	386.31
381.958	387.31
382.184	382.31
382.409	372.31
382.634	383.31
382.86	394.31
383.085	411.31
383.31	374.31
383.535	399.31
383.761	379.31
383.986	397.31
384.211	393.31
384.436	400.31
384.662	433.31
384.887	398.31
385.112	389.31
385.337	414.31
385.562	404.31
385.787	395.31
386.013	420.31
386.238	414.31
386.463	420.31
386.688	415.31
386.913	395.31
387.138	406.31
387.363	416.31
387.588	392.31
387.813	403.31
388.038	410.31
388.263	393.31
388.488	407.31
388.713	421.31
388.938	413.31
389.163	408.31
389.387	416.31
389.612	396.31
389.837	385.31
390.062	401.31
390.287	409.31
390.512	390.31
390.736	406.31
390.961	417.31
391.186	405.31
391.411	400.31
391.636	394.31
391.86	410.31
392.085	394.31
392.31	399.31
392.534	423.31
392.759	404.31
392.984	411.31
393.208	402.31
393.433	393.31
393.658	416.31
393.882	403.31
394.107	409.31
394.331	403.31
394.556	399.31
394.78	412.31
395.005	410.31
395.229	404.31
395.454	414.31
395.678	405.31
395.903	427.31
396.127	447.31
396.352	463.31
396.576	410.31
396.801	425.31
397.025	404.31
397.249	421.31
397.474	424.31
397.698	431.31
397.922	461.31
398.147	470.31
398.371	453.31
398.595	456.31
398.82	441.31
399.044	470.31
399.268	447.31
399.492	488.31
399.717	516.31
399.941	529.31
400.165	554.31
400.389	563.31
400.613	504.31
400.837	488.31
401.062	457.31
401.286	456.31
401.51	467.31
401.734	463.31
401.958	467.31
402.182	479.31
402.406	453.31
402.63	461.31
402.854	476.31
403.078	472.31
403.302	474.31
403.526	496.31
403.75	506.31
403.974	472.31
404.198	476.31
404.422	479.31
404.645	489.31
404.869	517.31
405.093	545.31
405.317	586.31
405.541	626.31
405.765	570.31
405.988	564.31
406.212	508.31
406.436	535.31
406.66	544.31
406.883	527.31
407.107	550.31
407.331	594.31
407.555	642.31
407.778	631.31
408.002	573.31
408.226	547.31
408.449	540.31
408.673	536.31
408.896	540.31
409.12	593.31
409.344	568.31
409.567	512.31
409.791	488.31
410.014	487.31
410.238	456.31
410.461	481.31
410.685	474.31
410.908	499.31
411.132	534.31
411.355	576.31
411.578	530.31
411.802	490.31
412.025	476.31
412.249	513.31
412.472	525.31
412.695	591.31
412.919	590.31
413.142	531.31
413.365	492.31
413.589	473.31
413.812	453.31
414.035	452.31
414.258	457.31
414.482	451.31
414.705	454.31
414.928	456.31
415.151	439.31
415.374	452.31
415.597	424.31
415.821	451.31
416.044	434.31
416.267	465.31
416.49	458.31
416.713	443.31
416.936	455.31
417.159	458.31
417.382	470.31
417.605	455.31
417.828	472.31
418.051	488.31
418.274	477.31
418.497	456.31
418.72	458.31
418.943	445.31
419.166	462.31
419.389	476.31
419.611	481.31
419.834	490.31
420.057	498.31
420.28	485.31
420.503	528.31
420.726	509.31
420.948	510.31
421.171	543.31
421.394	571.31
421.617	521.31
421.839	478.31
422.062	485.31
422.285	495.31
422.507	541.31
422.73	627.31
422.953	586.31
423.175	524.31
423.398	513.31
423.621	505.31
423.843	536.31
424.066	515.31
424.288	518.31
424.511	538.31
424.733	604.31
424.956	666.31
425.178	640.31
425.401	652.31
425.623	662.31
425.846	594.31
426.068	518.31
426.291	520.31
426.513	525.31
426.735	525.31
426.958	574.31
427.18	647.31
427.402	802.31
427.625	865.31
427.847	781.31
428.069	697.31
428.292	590.31
428.514	551.31
428.736	510.31
428.958	477.31
429.181	471.31
429.403	469.31
429.625	494.31
429.847	512.31
430.069	608.31
430.292	599.31
430.514	494.31
430.736	468.31
430.958	468.31
431.18	452.31
431.402	447.31
431.624	445.31
431.846	454.31
432.068	444.31
432.29	443.31
432.512	440.31
432.734	457.31
432.956	456.31
433.178	452.31
433.4	481.31
433.622	423.31
433.844	451.31
434.066	458.31
434.287	458.31
434.509	455.31
434.731	447.31
434.953	454.31
435.175	470.31
435.397	493.31
435.618	516.31
435.84	560.31
436.062	667.31
436.284	709.31
436.505	602.31
436.727	545.31
436.949	509.31
437.17	497.31
437.392	468.31
437.614	482.31
437.835	522.31
438.057	642.31
438.278	755.31
438.5	728.31
438.721	764.31
438.943	758.31
439.165	605.31
439.386	566.31
439.608	534.31
439.829	538.31
440.05	567.31
440.272	622.31
440.493	582.31
440.715	544.31
440.936	503.31
441.158	509.31
441.379	468.31
441.6	478.31
441.822	502.31
442.043	563.31
442.264	647.31
442.486	658.31
442.707	607.31
442.928	542.31
443.149	556.31
443.371	561.31
443.592	579.31
443.813	682.31
444.034	736.31
444.255	613.31
444.476	547.31
444.698	519.31
444.919	495.31
445.14	656.31
445.361	592.31
445.582	582.31
445.803	643.31
446.024	738.31
446.245	748.31
446.466	655.31
446.687	568.31
446.908	540.31
447.129	503.31
447.35	480.31
447.571	487.31
447.792	474.31
448.013	483.31
448.234	505.31
448.455	561.31
448.675	658.31
448.896	764.31
449.117	651.31
449.338	615.31
449.559	721.31
449.779	801.31
450	672.31
450.221	546.31
450.442	515.31
450.662	497.31
450.883	482.31
451.104	523.31
451.324	481.31
451.545	465.31
451.766	456.31
451.986	438.31
452.207	427.31
452.428	426.31
452.648	410.31
452.869	430.31
453.089	427.31
453.31	463.31
453.53	443.31
453.751	438.31
453.971	436.31
454.192	463.31
454.412	449.31
454.633	444.31
454.853	411.31
455.073	415.31
455.294	457.31
455.514	534.31
455.734	515.31
455.955	440.31
456.175	406.31
456.395	395.31
456.616	395.31
456.836	378.31
457.056	385.31
457.276	376.31
457.497	402.31
457.717	414.31
457.937	422.31
458.157	404.31
458.377	408.31
458.598	444.31
458.818	508.31
459.038	568.31
459.258	595.31
459.478	504.31
459.698	465.31
459.918	450.31
460.138	436.31
460.358	430.31
460.578	436.31
460.798	449.31
461.018	448.31
461.238	412.31
461.458	436.31
461.678	447.31
461.898	459.31
462.118	450.31
462.338	437.31
462.558	450.31
462.777	451.31
462.997	471.31
463.217	477.31
463.437	477.31
463.657	453.31
463.876	454.31
464.096	472.31
464.316	446.31
464.536	483.31
464.755	483.31
464.975	478.31
465.195	503.31
465.414	606.31
465.634	545.31
465.854	475.31
466.073	444.31
466.293	428.31
466.512	438.31
466.732	413.31
466.951	419.31
467.171	431.31
467.391	427.31
467.61	455.31
467.829	464.31
468.049	452.31
468.268	463.31
468.488	424.31
468.707	438.31
468.927	417.31
469.146	419.31
469.365	436.31
469.585	434.31
469.804	429.31
470.023	464.31
470.243	455.31
470.462	438.31
470.681	449.31
470.901	440.31
471.12	430.31
471.339	454.31
471.558	432.31
471.777	448.31
471.997	436.31
472.216	467.31
472.435	534.31
472.654	502.31
472.873	463.31
473.092	433.31
473.311	459.31
473.53	457.31
473.749	443.31
473.968	494.31
474.187	598.31
474.406	626.31
474.625	500.31
474.844	474.31
475.063	445.31
475.282	442.31
475.501	434.31
475.72	459.31
475.939	464.31
476.158	452.31
476.377	458.31
476.596	430.31
476.814	452.31
477.033	468.31
477.252	459.31
477.471	470.31
477.69	493.31
477.908	478.31
478.127	486.31
478.346	478.31
478.564	466.31
478.783	503.31
479.002	498.31
479.22	492.31
479.439	503.31
479.658	540.31
479.876	547.31
480.095	548.31
480.313	552.31
480.532	547.31
480.751	513.31
480.969	574.31
481.188	715.31
481.406	797.31
481.624	678.31
481.843	583.31
482.061	558.31
482.28	563.31
482.498	540.31
482.717	516.31
482.935	518.31
483.153	530.31
483.372	525.31
483.59	523.31
483.808	528.31
484.027	499.31
484.245	512.31
484.463	530.31
484.681	548.31
484.9	536.31
485.118	525.31
485.336	513.31
485.554	546.31
485.772	535.31
485.99	548.31
486.209	536.31
486.427	553.31
486.645	578.31
486.863	566.31
487.081	590.31
487.299	579.31
487.517	547.31
487.735	559.31
487.953	576.31
488.171	571.31
488.389	570.31
488.607	570.31
488.825	561.31
489.043	556.31
489.261	572.31
489.479	566.31
489.696	567.31
489.914	571.31
490.132	582.31
490.35	594.31
490.568	569.31
490.786	614.31
491.003	629.31
491.221	634.31
491.439	661.31
491.657	642.31
491.874	645.31
492.092	660.31
492.31	649.31
492.527	649.31
492.745	674.31
492.963	677.31
493.18	666.31
493.398	698.31
493.615	663.31
493.833	675.31
494.05	656.31
494.268	684.31
494.485	656.31
494.703	683.31
494.92	676.31
495.138	661.31
495.355	679.31
495.573	670.31
495.79	658.31
496.008	686.31
496.225	674.31
496.442	683.31
496.66	667.31
496.877	656.31
497.094	674.31
497.312	673.31
497.529	672.31
497.746	703.31
497.963	700.31
498.181	716.31
498.398	734.31
498.615	746.31
498.832	734.31
499.049	748.31
499.267	737.31
499.484	763.31
499.701	791.31
499.918	774.31
500.135	816.31
500.352	808.31
500.569	848.31
500.786	852.31
501.003	870.31
501.22	871.31
501.437	823.31
501.654	823.31
501.871	820.31
