Data from 1989.PennyLincolnUp.Lamp.En5.5.200Scan.071819.P2_HRD10591_17-23-18-972.txt Node
Date: Thu Jul 18 17:23:18 EDT 2019
User: cochatt
Spectrometer: HR+D1059
Trigger mode: 1
Integration Time (sec): 1.000000E-1
Scans to average: 1
Electric dark correction enabled: true
Nonlinearity correction enabled: false
Boxcar width: 0
XAxis mode: Wavelengths
Number of Pixels in Spectrum: 2048
>>>>>Begin Spectral Data<<<<<
223.165	1.19
223.4	1.19
223.635	1.19
223.869	-12.81
224.104	-19.81
224.338	-6.81
224.573	-21.81
224.808	-20.81
225.042	-9.81
225.277	-2.81
225.511	4.19
225.746	-6.81
225.98	9.19
226.215	5.19
226.449	19.19
226.683	10.19
226.918	26.19
227.152	26.19
227.387	22.19
227.621	34.19
227.856	38.19
228.09	50.19
228.324	47.19
228.559	71.19
228.793	75.19
229.027	106.19
229.262	96.19
229.496	99.19
229.73	114.19
229.964	135.19
230.199	105.19
230.433	115.19
230.667	97.19
230.901	113.19
231.136	95.19
231.37	93.19
231.604	100.19
231.838	109.19
232.072	100.19
232.306	105.19
232.541	113.19
232.775	99.19
233.009	108.19
233.243	110.19
233.477	120.19
233.711	95.19
233.945	115.19
234.179	113.19
234.413	116.19
234.647	110.19
234.881	114.19
235.115	117.19
235.349	120.19
235.583	104.19
235.817	124.19
236.051	117.19
236.285	114.19
236.519	111.19
236.753	111.19
236.987	135.19
237.221	140.19
237.455	202.19
237.689	156.19
237.922	143.19
238.156	124.19
238.39	114.19
238.624	109.19
238.858	117.19
239.091	95.19
239.325	117.19
239.559	130.19
239.793	114.19
240.027	126.19
240.26	125.19
240.494	135.19
240.728	127.19
240.961	127.19
241.195	133.19
241.429	141.19
241.662	118.19
241.896	116.19
242.13	139.19
242.363	116.19
242.597	123.19
242.83	131.19
243.064	125.19
243.298	126.19
243.531	121.19
243.765	126.19
243.998	138.19
244.232	133.19
244.465	134.19
244.699	153.19
244.932	125.19
245.166	133.19
245.399	135.19
245.633	126.19
245.866	144.19
246.099	133.19
246.333	127.19
246.566	139.19
246.8	133.19
247.033	140.19
247.266	141.19
247.5	155.19
247.733	133.19
247.966	165.19
248.2	162.19
248.433	143.19
248.666	153.19
248.899	166.19
249.133	185.19
249.366	187.19
249.599	182.19
249.832	149.19
250.066	171.19
250.299	168.19
250.532	170.19
250.765	179.19
250.998	205.19
251.231	205.19
251.465	191.19
251.698	179.19
251.931	192.19
252.164	187.19
252.397	191.19
252.63	186.19
252.863	182.19
253.096	194.19
253.329	215.19
253.562	190.19
253.795	197.19
254.028	219.19
254.261	200.19
254.494	197.19
254.727	213.19
254.96	235.19
255.193	227.19
255.426	205.19
255.659	192.19
255.892	205.19
256.124	197.19
256.357	198.19
256.59	213.19
256.823	203.19
257.056	181.19
257.289	193.19
257.521	189.19
257.754	187.19
257.987	205.19
258.22	209.19
258.452	189.19
258.685	204.19
258.918	206.19
259.151	193.19
259.383	182.19
259.616	213.19
259.849	206.19
260.081	224.19
260.314	222.19
260.547	228.19
260.779	233.19
261.012	228.19
261.244	207.19
261.477	211.19
261.71	194.19
261.942	193.19
262.175	217.19
262.407	199.19
262.64	206.19
262.872	209.19
263.105	209.19
263.337	198.19
263.57	197.19
263.802	198.19
264.035	202.19
264.267	193.19
264.499	184.19
264.732	214.19
264.964	207.19
265.197	201.19
265.429	199.19
265.661	209.19
265.894	212.19
266.126	207.19
266.358	201.19
266.591	204.19
266.823	193.19
267.055	205.19
267.287	220.19
267.52	212.19
267.752	204.19
267.984	215.19
268.216	210.19
268.448	228.19
268.681	223.19
268.913	224.19
269.145	250.19
269.377	246.19
269.609	235.19
269.841	236.19
270.073	266.19
270.306	243.19
270.538	263.19
270.77	278.19
271.002	279.19
271.234	266.19
271.466	255.19
271.698	278.19
271.93	277.19
272.162	281.19
272.394	296.19
272.626	280.19
272.858	270.19
273.09	233.19
273.322	244.19
273.553	229.19
273.785	252.19
274.017	243.19
274.249	236.19
274.481	238.19
274.713	224.19
274.945	249.19
275.176	238.19
275.408	251.19
275.64	236.19
275.872	245.19
276.104	228.19
276.335	263.19
276.567	258.19
276.799	255.19
277.031	264.19
277.262	288.19
277.494	279.19
277.726	261.19
277.957	246.19
278.189	259.19
278.421	250.19
278.652	249.19
278.884	241.19
279.115	237.19
279.347	239.19
279.579	257.19
279.81	234.19
280.042	241.19
280.273	236.19
280.505	237.19
280.736	236.19
280.968	268.19
281.199	247.19
281.431	251.19
281.662	250.19
281.894	260.19
282.125	263.19
282.356	249.19
282.588	265.19
282.819	274.19
283.051	271.19
283.282	255.19
283.513	249.19
283.745	260.19
283.976	269.19
284.207	254.19
284.439	248.19
284.67	261.19
284.901	262.19
285.132	269.19
285.364	270.19
285.595	248.19
285.826	263.19
286.057	252.19
286.288	259.19
286.52	264.19
286.751	235.19
286.982	269.19
287.213	260.19
287.444	269.19
287.675	234.19
287.906	270.19
288.138	254.19
288.369	269.19
288.6	294.19
288.831	269.19
289.062	263.19
289.293	269.19
289.524	273.19
289.755	258.19
289.986	258.19
290.217	257.19
290.448	248.19
290.679	267.19
290.91	268.19
291.141	259.19
291.371	260.19
291.602	261.19
291.833	269.19
292.064	269.19
292.295	285.19
292.526	270.19
292.757	261.19
292.987	261.19
293.218	267.19
293.449	286.19
293.68	261.19
293.91	252.19
294.141	268.19
294.372	268.19
294.603	276.19
294.833	284.19
295.064	261.19
295.295	280.19
295.525	271.19
295.756	266.19
295.987	263.19
296.217	285.19
296.448	306.19
296.679	278.19
296.909	254.19
297.14	268.19
297.37	288.19
297.601	287.19
297.831	257.19
298.062	279.19
298.292	271.19
298.523	268.19
298.753	292.19
298.984	274.19
299.214	275.19
299.445	272.19
299.675	278.19
299.905	281.19
300.136	289.19
300.366	284.19
300.597	286.19
300.827	291.19
301.057	279.19
301.288	284.19
301.518	288.19
301.748	292.19
301.979	284.19
302.209	297.19
302.439	275.19
302.669	279.19
302.9	307.19
303.13	315.19
303.36	314.19
303.59	287.19
303.82	317.19
304.051	312.19
304.281	301.19
304.511	292.19
304.741	295.19
304.971	302.19
305.201	314.19
305.431	289.19
305.661	299.19
305.891	316.19
306.121	327.19
306.352	293.19
306.582	307.19
306.812	299.19
307.042	292.19
307.272	294.19
307.502	309.19
307.731	309.19
307.961	307.19
308.191	305.19
308.421	302.19
308.651	311.19
308.881	300.19
309.111	298.19
309.341	296.19
309.571	303.19
309.8	330.19
310.03	328.19
310.26	325.19
310.49	321.19
310.72	340.19
310.949	334.19
311.179	356.19
311.409	327.19
311.639	325.19
311.868	333.19
312.098	306.19
312.328	326.19
312.557	344.19
312.787	360.19
313.017	353.19
313.246	343.19
313.476	332.19
313.706	344.19
313.935	330.19
314.165	352.19
314.394	348.19
314.624	343.19
314.853	346.19
315.083	329.19
315.312	323.19
315.542	329.19
315.771	338.19
316.001	332.19
316.23	317.19
316.46	343.19
316.689	345.19
316.919	343.19
317.148	349.19
317.377	350.19
317.607	351.19
317.836	350.19
318.065	328.19
318.295	331.19
318.524	342.19
318.753	333.19
318.983	342.19
319.212	335.19
319.441	327.19
319.67	346.19
319.9	329.19
320.129	352.19
320.358	344.19
320.587	337.19
320.816	340.19
321.046	358.19
321.275	369.19
321.504	339.19
321.733	350.19
321.962	373.19
322.191	367.19
322.42	372.19
322.649	384.19
322.878	386.19
323.108	392.19
323.337	392.19
323.566	425.19
323.795	426.19
324.024	469.19
324.253	527.19
324.482	741.19
324.71	1069.19
324.939	1573.19
325.168	1373.19
325.397	689.19
325.626	519.19
325.855	454.19
326.084	414.19
326.313	427.19
326.542	414.19
326.77	415.19
326.999	528.19
327.228	680.19
327.457	1012.19
327.686	1217.19
327.914	842.19
328.143	552.19
328.372	482.19
328.6	472.19
328.829	422.19
329.058	471.19
329.287	462.19
329.515	445.19
329.744	418.19
329.972	399.19
330.201	397.19
330.43	418.19
330.658	449.19
330.887	464.19
331.115	455.19
331.344	424.19
331.572	407.19
331.801	421.19
332.03	394.19
332.258	387.19
332.486	377.19
332.715	383.19
332.943	375.19
333.172	383.19
333.4	387.19
333.629	379.19
333.857	391.19
334.085	389.19
334.314	402.19
334.542	374.19
334.771	405.19
334.999	395.19
335.227	400.19
335.455	405.19
335.684	397.19
335.912	385.19
336.14	390.19
336.369	377.19
336.597	370.19
336.825	394.19
337.053	370.19
337.281	361.19
337.51	395.19
337.738	380.19
337.966	386.19
338.194	402.19
338.422	378.19
338.65	390.19
338.878	369.19
339.106	389.19
339.334	375.19
339.562	378.19
339.79	364.19
340.018	371.19
340.246	367.19
340.474	369.19
340.702	379.19
340.93	364.19
341.158	383.19
341.386	363.19
341.614	369.19
341.842	377.19
342.07	380.19
342.298	370.19
342.526	372.19
342.754	367.19
342.981	369.19
343.209	361.19
343.437	358.19
343.665	378.19
343.893	381.19
344.12	390.19
344.348	384.19
344.576	376.19
344.804	394.19
345.031	386.19
345.259	392.19
345.487	361.19
345.714	382.19
345.942	375.19
346.17	369.19
346.397	370.19
346.625	370.19
346.853	364.19
347.08	354.19
347.308	348.19
347.535	371.19
347.763	374.19
347.99	395.19
348.218	375.19
348.445	389.19
348.673	371.19
348.9	355.19
349.128	352.19
349.355	350.19
349.583	341.19
349.81	357.19
350.037	346.19
350.265	357.19
350.492	350.19
350.72	360.19
350.947	369.19
351.174	373.19
351.402	364.19
351.629	365.19
351.856	361.19
352.083	366.19
352.311	358.19
352.538	342.19
352.765	385.19
352.992	378.19
353.22	351.19
353.447	364.19
353.674	361.19
353.901	343.19
354.128	340.19
354.355	357.19
354.583	353.19
354.81	336.19
355.037	334.19
355.264	342.19
355.491	350.19
355.718	343.19
355.945	330.19
356.172	326.19
356.399	333.19
356.626	332.19
356.853	342.19
357.08	350.19
357.307	345.19
357.534	349.19
357.761	351.19
357.988	358.19
358.215	359.19
358.441	335.19
358.668	359.19
358.895	353.19
359.122	350.19
359.349	341.19
359.576	355.19
359.802	358.19
360.029	383.19
360.256	379.19
360.483	380.19
360.709	378.19
360.936	351.19
361.163	348.19
361.39	351.19
361.616	366.19
361.843	355.19
362.07	356.19
362.296	356.19
362.523	343.19
362.749	361.19
362.976	344.19
363.203	345.19
363.429	335.19
363.656	342.19
363.882	345.19
364.109	342.19
364.335	342.19
364.562	332.19
364.788	353.19
365.015	361.19
365.241	327.19
365.468	349.19
365.694	348.19
365.92	348.19
366.147	347.19
366.373	354.19
366.599	363.19
366.826	352.19
367.052	339.19
367.278	346.19
367.505	354.19
367.731	330.19
367.957	353.19
368.184	348.19
368.41	348.19
368.636	364.19
368.862	355.19
369.089	345.19
369.315	335.19
369.541	334.19
369.767	343.19
369.993	340.19
370.219	330.19
370.445	318.19
370.672	337.19
370.898	335.19
371.124	335.19
371.35	357.19
371.576	354.19
371.802	353.19
372.028	337.19
372.254	322.19
372.48	323.19
372.706	348.19
372.932	350.19
373.158	340.19
373.384	341.19
373.61	355.19
373.835	343.19
374.061	351.19
374.287	350.19
374.513	357.19
374.739	350.19
374.965	339.19
375.191	371.19
375.416	356.19
375.642	373.19
375.868	345.19
376.094	343.19
376.319	345.19
376.545	372.19
376.771	346.19
376.997	328.19
377.222	337.19
377.448	339.19
377.674	348.19
377.899	344.19
378.125	329.19
378.35	333.19
378.576	333.19
378.802	335.19
379.027	356.19
379.253	361.19
379.478	322.19
379.704	351.19
379.929	354.19
380.155	346.19
380.38	350.19
380.606	345.19
380.831	341.19
381.057	361.19
381.282	331.19
381.507	345.19
381.733	348.19
381.958	341.19
382.184	348.19
382.409	347.19
382.634	355.19
382.86	338.19
383.085	342.19
383.31	358.19
383.535	350.19
383.761	349.19
383.986	377.19
384.211	371.19
384.436	363.19
384.662	364.19
384.887	374.19
385.112	386.19
385.337	376.19
385.562	371.19
385.787	362.19
386.013	377.19
386.238	360.19
386.463	374.19
386.688	393.19
386.913	373.19
387.138	379.19
387.363	397.19
387.588	367.19
387.813	373.19
388.038	369.19
388.263	370.19
388.488	385.19
388.713	374.19
388.938	371.19
389.163	362.19
389.387	363.19
389.612	359.19
389.837	358.19
390.062	384.19
390.287	384.19
390.512	361.19
390.736	369.19
390.961	365.19
391.186	353.19
391.411	371.19
391.636	367.19
391.86	395.19
392.085	373.19
392.31	395.19
392.534	375.19
392.759	394.19
392.984	382.19
393.208	376.19
393.433	385.19
393.658	373.19
393.882	365.19
394.107	366.19
394.331	375.19
394.556	380.19
394.78	367.19
395.005	352.19
395.229	391.19
395.454	368.19
395.678	385.19
395.903	390.19
396.127	377.19
396.352	406.19
396.576	393.19
396.801	380.19
397.025	379.19
397.249	358.19
397.474	379.19
397.698	409.19
397.922	418.19
398.147	402.19
398.371	410.19
398.595	386.19
398.82	403.19
399.044	405.19
399.268	433.19
399.492	446.19
399.717	457.19
399.941	478.19
400.165	481.19
400.389	497.19
400.613	490.19
400.837	443.19
401.062	421.19
401.286	425.19
401.51	421.19
401.734	425.19
401.958	430.19
402.182	395.19
402.406	399.19
402.63	436.19
402.854	420.19
403.078	412.19
403.302	410.19
403.526	401.19
403.75	427.19
403.974	413.19
404.198	416.19
404.422	420.19
404.645	415.19
404.869	439.19
405.093	436.19
405.317	454.19
405.541	472.19
405.765	421.19
405.988	435.19
406.212	453.19
406.436	459.19
406.66	477.19
406.883	453.19
407.107	485.19
407.331	510.19
407.555	565.19
407.778	557.19
408.002	531.19
408.226	481.19
408.449	459.19
408.673	458.19
408.896	486.19
409.12	509.19
409.344	503.19
409.567	461.19
409.791	430.19
410.014	435.19
410.238	424.19
410.461	417.19
410.685	427.19
410.908	421.19
411.132	463.19
411.355	492.19
411.578	475.19
411.802	439.19
412.025	430.19
412.249	432.19
412.472	441.19
412.695	423.19
412.919	405.19
413.142	407.19
413.365	416.19
413.589	415.19
413.812	382.19
414.035	383.19
414.258	379.19
414.482	409.19
414.705	393.19
414.928	416.19
415.151	396.19
415.374	406.19
415.597	406.19
415.821	403.19
416.044	394.19
416.267	414.19
416.49	391.19
416.713	384.19
416.936	400.19
417.159	411.19
417.382	398.19
417.605	402.19
417.828	415.19
418.051	426.19
418.274	427.19
418.497	400.19
418.72	410.19
418.943	388.19
419.166	418.19
419.389	415.19
419.611	435.19
419.834	411.19
420.057	445.19
420.28	414.19
420.503	386.19
420.726	387.19
420.948	424.19
421.171	474.19
421.394	474.19
421.617	434.19
421.839	411.19
422.062	401.19
422.285	437.19
422.507	462.19
422.73	532.19
422.953	527.19
423.175	444.19
423.398	426.19
423.621	420.19
423.843	439.19
424.066	430.19
424.288	467.19
424.511	473.19
424.733	510.19
424.956	552.19
425.178	537.19
425.401	523.19
425.623	569.19
425.846	469.19
426.068	457.19
426.291	443.19
426.513	424.19
426.735	439.19
426.958	483.19
427.18	556.19
427.402	655.19
427.625	725.19
427.847	602.19
428.069	502.19
428.292	449.19
428.514	438.19
428.736	414.19
428.958	433.19
429.181	427.19
429.403	381.19
429.625	407.19
429.847	435.19
430.069	477.19
430.292	487.19
430.514	419.19
430.736	427.19
430.958	400.19
431.18	400.19
431.402	386.19
431.624	390.19
431.846	382.19
432.068	389.19
432.29	387.19
432.512	405.19
432.734	402.19
432.956	399.19
433.178	401.19
433.4	409.19
433.622	399.19
433.844	414.19
434.066	406.19
434.287	377.19
434.509	403.19
434.731	403.19
434.953	419.19
435.175	398.19
435.397	441.19
435.618	418.19
435.84	487.19
436.062	543.19
436.284	612.19
436.505	498.19
436.727	446.19
436.949	452.19
437.17	422.19
437.392	407.19
437.614	429.19
437.835	445.19
438.057	509.19
438.278	613.19
438.5	595.19
438.721	662.19
438.943	643.19
439.165	498.19
439.386	442.19
439.608	455.19
439.829	448.19
440.05	477.19
440.272	522.19
440.493	486.19
440.715	454.19
440.936	434.19
441.158	417.19
441.379	405.19
441.6	429.19
441.822	406.19
442.043	463.19
442.264	543.19
442.486	586.19
442.707	510.19
442.928	460.19
443.149	476.19
443.371	469.19
443.592	502.19
443.813	569.19
444.034	615.19
444.255	547.19
444.476	481.19
444.698	444.19
444.919	450.19
445.14	532.19
445.361	471.19
445.582	451.19
445.803	511.19
446.024	616.19
446.245	602.19
446.466	554.19
446.687	484.19
446.908	460.19
447.129	446.19
447.35	413.19
447.571	417.19
447.792	396.19
448.013	403.19
448.234	429.19
448.455	466.19
448.675	561.19
448.896	634.19
449.117	551.19
449.338	514.19
449.559	610.19
449.779	676.19
450	537.19
450.221	451.19
450.442	427.19
450.662	400.19
450.883	417.19
451.104	412.19
451.324	394.19
451.545	397.19
451.766	370.19
451.986	377.19
452.207	364.19
452.428	353.19
452.648	365.19
452.869	390.19
453.089	365.19
453.31	371.19
453.53	383.19
453.751	386.19
453.971	369.19
454.192	385.19
454.412	377.19
454.633	358.19
454.853	379.19
455.073	359.19
455.294	399.19
455.514	437.19
455.734	420.19
455.955	380.19
456.175	362.19
456.395	350.19
456.616	354.19
456.836	347.19
457.056	345.19
457.276	337.19
457.497	362.19
457.717	340.19
457.937	354.19
458.157	376.19
458.377	363.19
458.598	382.19
458.818	418.19
459.038	466.19
459.258	485.19
459.478	424.19
459.698	390.19
459.918	401.19
460.138	373.19
460.358	390.19
460.578	373.19
460.798	384.19
461.018	383.19
461.238	384.19
461.458	384.19
461.678	391.19
461.898	389.19
462.118	386.19
462.338	419.19
462.558	422.19
462.777	397.19
462.997	413.19
463.217	409.19
463.437	435.19
463.657	427.19
463.876	405.19
464.096	435.19
464.316	416.19
464.536	430.19
464.755	433.19
464.975	450.19
465.195	443.19
465.414	477.19
465.634	441.19
465.854	412.19
466.073	377.19
466.293	383.19
466.512	375.19
466.732	384.19
466.951	383.19
467.171	380.19
467.391	377.19
467.61	364.19
467.829	389.19
468.049	387.19
468.268	381.19
468.488	352.19
468.707	373.19
468.927	347.19
469.146	362.19
469.365	376.19
469.585	389.19
469.804	379.19
470.023	380.19
470.243	376.19
470.462	396.19
470.681	419.19
470.901	407.19
471.12	379.19
471.339	381.19
471.558	385.19
471.777	362.19
471.997	368.19
472.216	379.19
472.435	374.19
472.654	387.19
472.873	373.19
473.092	386.19
473.311	371.19
473.53	385.19
473.749	371.19
473.968	420.19
474.187	509.19
474.406	523.19
474.625	450.19
474.844	403.19
475.063	381.19
475.282	399.19
475.501	383.19
475.72	397.19
475.939	395.19
476.158	396.19
476.377	408.19
476.596	378.19
476.814	405.19
477.033	393.19
477.252	425.19
477.471	412.19
477.69	391.19
477.908	430.19
478.127	411.19
478.346	400.19
478.564	401.19
478.783	418.19
479.002	438.19
479.22	417.19
479.439	439.19
479.658	448.19
479.876	437.19
480.095	472.19
480.313	467.19
480.532	475.19
480.751	483.19
480.969	467.19
481.188	466.19
481.406	473.19
481.624	450.19
481.843	459.19
482.061	429.19
482.28	435.19
482.498	419.19
482.717	452.19
482.935	458.19
483.153	441.19
483.372	441.19
483.59	443.19
483.808	450.19
484.027	447.19
484.245	446.19
484.463	446.19
484.681	453.19
484.9	444.19
485.118	471.19
485.336	453.19
485.554	462.19
485.772	454.19
485.99	462.19
486.209	442.19
486.427	440.19
486.645	470.19
486.863	483.19
487.081	463.19
487.299	490.19
487.517	477.19
487.735	468.19
487.953	469.19
488.171	461.19
488.389	475.19
488.607	482.19
488.825	474.19
489.043	474.19
489.261	488.19
489.479	489.19
489.696	493.19
489.914	483.19
490.132	483.19
490.35	497.19
490.568	492.19
490.786	473.19
491.003	491.19
491.221	500.19
491.439	492.19
491.657	523.19
491.874	510.19
492.092	537.19
492.31	526.19
492.527	532.19
492.745	515.19
492.963	545.19
493.18	541.19
493.398	534.19
493.615	575.19
493.833	552.19
494.05	532.19
494.268	549.19
494.485	547.19
494.703	570.19
494.92	553.19
495.138	532.19
495.355	556.19
495.573	554.19
495.79	570.19
496.008	575.19
496.225	554.19
496.442	547.19
496.66	581.19
496.877	555.19
497.094	580.19
497.312	564.19
497.529	563.19
497.746	566.19
497.963	596.19
498.181	604.19
498.398	611.19
498.615	619.19
498.832	619.19
499.049	650.19
499.267	661.19
499.484	663.19
499.701	700.19
499.918	708.19
500.135	730.19
500.352	772.19
500.569	746.19
500.786	754.19
501.003	787.19
501.22	718.19
501.437	723.19
501.654	715.19
501.871	722.19
502.088	673.19
