Data from 1989.PennyLincolnUp.Lamp.En5.5.200Scan.071819.P2_HRD10591_17-24-37-973.txt Node
Date: Thu Jul 18 17:24:37 EDT 2019
User: cochatt
Spectrometer: HR+D1059
Trigger mode: 1
Integration Time (sec): 1.000000E-1
Scans to average: 1
Electric dark correction enabled: true
Nonlinearity correction enabled: false
Boxcar width: 0
XAxis mode: Wavelengths
Number of Pixels in Spectrum: 2048
>>>>>Begin Spectral Data<<<<<
223.165	-10.81
223.4	-10.81
223.635	-10.81
223.869	-14.81
224.104	-14.81
224.338	-23.81
224.573	0.19
224.808	-9.81
225.042	-18.81
225.277	-4.81
225.511	-5.81
225.746	16.19
225.98	7.19
226.215	-0.81
226.449	8.19
226.683	13.19
226.918	40.19
227.152	19.19
227.387	46.19
227.621	41.19
227.856	45.19
228.09	51.19
228.324	55.19
228.559	54.19
228.793	75.19
229.027	106.19
229.262	120.19
229.496	130.19
229.73	144.19
229.964	168.19
230.199	136.19
230.433	113.19
230.667	127.19
230.901	119.19
231.136	103.19
231.37	107.19
231.604	117.19
231.838	111.19
232.072	111.19
232.306	107.19
232.541	110.19
232.775	111.19
233.009	119.19
233.243	116.19
233.477	122.19
233.711	115.19
233.945	129.19
234.179	126.19
234.413	131.19
234.647	103.19
234.881	119.19
235.115	131.19
235.349	116.19
235.583	116.19
235.817	126.19
236.051	131.19
236.285	132.19
236.519	120.19
236.753	121.19
236.987	155.19
237.221	185.19
237.455	239.19
237.689	211.19
237.922	160.19
238.156	144.19
238.39	130.19
238.624	132.19
238.858	136.19
239.091	129.19
239.325	133.19
239.559	131.19
239.793	124.19
240.027	132.19
240.26	167.19
240.494	150.19
240.728	161.19
240.961	157.19
241.195	164.19
241.429	153.19
241.662	132.19
241.896	140.19
242.13	140.19
242.363	141.19
242.597	146.19
242.83	129.19
243.064	136.19
243.298	131.19
243.531	147.19
243.765	130.19
243.998	145.19
244.232	156.19
244.465	155.19
244.699	141.19
244.932	157.19
245.166	150.19
245.399	164.19
245.633	145.19
245.866	151.19
246.099	152.19
246.333	139.19
246.566	168.19
246.8	162.19
247.033	166.19
247.266	153.19
247.5	177.19
247.733	183.19
247.966	165.19
248.2	176.19
248.433	180.19
248.666	183.19
248.899	200.19
249.133	221.19
249.366	225.19
249.599	228.19
249.832	199.19
250.066	187.19
250.299	196.19
250.532	188.19
250.765	196.19
250.998	230.19
251.231	241.19
251.465	204.19
251.698	214.19
251.931	219.19
252.164	220.19
252.397	203.19
252.63	221.19
252.863	239.19
253.096	245.19
253.329	248.19
253.562	239.19
253.795	252.19
254.028	236.19
254.261	250.19
254.494	248.19
254.727	278.19
254.96	299.19
255.193	316.19
255.426	279.19
255.659	253.19
255.892	262.19
256.124	236.19
256.357	229.19
256.59	230.19
256.823	209.19
257.056	216.19
257.289	230.19
257.521	248.19
257.754	227.19
257.987	227.19
258.22	233.19
258.452	219.19
258.685	216.19
258.918	227.19
259.151	243.19
259.383	227.19
259.616	236.19
259.849	241.19
260.081	256.19
260.314	266.19
260.547	271.19
260.779	277.19
261.012	260.19
261.244	271.19
261.477	257.19
261.71	230.19
261.942	245.19
262.175	280.19
262.407	243.19
262.64	262.19
262.872	230.19
263.105	219.19
263.337	227.19
263.57	217.19
263.802	207.19
264.035	225.19
264.267	229.19
264.499	230.19
264.732	231.19
264.964	223.19
265.197	219.19
265.429	232.19
265.661	240.19
265.894	247.19
266.126	250.19
266.358	230.19
266.591	247.19
266.823	247.19
267.055	231.19
267.287	237.19
267.52	250.19
267.752	249.19
267.984	281.19
268.216	256.19
268.448	249.19
268.681	264.19
268.913	262.19
269.145	273.19
269.377	301.19
269.609	311.19
269.841	289.19
270.073	308.19
270.306	316.19
270.538	356.19
270.77	364.19
271.002	325.19
271.234	332.19
271.466	344.19
271.698	353.19
271.93	358.19
272.162	342.19
272.394	353.19
272.626	326.19
272.858	317.19
273.09	303.19
273.322	321.19
273.553	285.19
273.785	287.19
274.017	281.19
274.249	281.19
274.481	297.19
274.713	295.19
274.945	289.19
275.176	278.19
275.408	285.19
275.64	294.19
275.872	300.19
276.104	282.19
276.335	290.19
276.567	301.19
276.799	311.19
277.031	319.19
277.262	352.19
277.494	342.19
277.726	328.19
277.957	294.19
278.189	303.19
278.421	291.19
278.652	302.19
278.884	294.19
279.115	291.19
279.347	267.19
279.579	285.19
279.81	289.19
280.042	288.19
280.273	271.19
280.505	289.19
280.736	282.19
280.968	286.19
281.199	260.19
281.431	306.19
281.662	274.19
281.894	299.19
282.125	282.19
282.356	313.19
282.588	328.19
282.819	321.19
283.051	317.19
283.282	287.19
283.513	288.19
283.745	275.19
283.976	297.19
284.207	291.19
284.439	295.19
284.67	295.19
284.901	297.19
285.132	277.19
285.364	293.19
285.595	292.19
285.826	309.19
286.057	313.19
286.288	301.19
286.52	318.19
286.751	314.19
286.982	302.19
287.213	304.19
287.444	307.19
287.675	301.19
287.906	332.19
288.138	316.19
288.369	319.19
288.6	330.19
288.831	318.19
289.062	315.19
289.293	305.19
289.524	305.19
289.755	308.19
289.986	313.19
290.217	308.19
290.448	289.19
290.679	315.19
290.91	310.19
291.141	289.19
291.371	311.19
291.602	309.19
291.833	309.19
292.064	303.19
292.295	311.19
292.526	305.19
292.757	317.19
292.987	303.19
293.218	292.19
293.449	311.19
293.68	311.19
293.91	311.19
294.141	312.19
294.372	300.19
294.603	298.19
294.833	303.19
295.064	307.19
295.295	304.19
295.525	311.19
295.756	323.19
295.987	328.19
296.217	348.19
296.448	368.19
296.679	337.19
296.909	312.19
297.14	318.19
297.37	309.19
297.601	338.19
297.831	328.19
298.062	307.19
298.292	335.19
298.523	315.19
298.753	314.19
298.984	299.19
299.214	318.19
299.445	313.19
299.675	322.19
299.905	323.19
300.136	318.19
300.366	322.19
300.597	327.19
300.827	328.19
301.057	335.19
301.288	332.19
301.518	353.19
301.748	327.19
301.979	341.19
302.209	344.19
302.439	356.19
302.669	352.19
302.9	335.19
303.13	341.19
303.36	339.19
303.59	366.19
303.82	357.19
304.051	368.19
304.281	349.19
304.511	337.19
304.741	333.19
304.971	355.19
305.201	340.19
305.431	343.19
305.661	359.19
305.891	361.19
306.121	340.19
306.352	343.19
306.582	351.19
306.812	373.19
307.042	327.19
307.272	323.19
307.502	348.19
307.731	348.19
307.961	348.19
308.191	342.19
308.421	352.19
308.651	356.19
308.881	349.19
309.111	381.19
309.341	371.19
309.571	366.19
309.8	366.19
310.03	387.19
310.26	408.19
310.49	404.19
310.72	390.19
310.949	435.19
311.179	420.19
311.409	419.19
311.639	400.19
311.868	387.19
312.098	384.19
312.328	431.19
312.557	422.19
312.787	428.19
313.017	422.19
313.246	437.19
313.476	397.19
313.706	401.19
313.935	424.19
314.165	421.19
314.394	435.19
314.624	407.19
314.853	403.19
315.083	403.19
315.312	392.19
315.542	392.19
315.771	392.19
316.001	410.19
316.23	401.19
316.46	390.19
316.689	407.19
316.919	399.19
317.148	400.19
317.377	423.19
317.607	404.19
317.836	418.19
318.065	393.19
318.295	400.19
318.524	401.19
318.753	399.19
318.983	394.19
319.212	400.19
319.441	395.19
319.67	414.19
319.9	411.19
320.129	411.19
320.358	392.19
320.587	421.19
320.816	416.19
321.046	438.19
321.275	417.19
321.504	403.19
321.733	428.19
321.962	437.19
322.191	453.19
322.42	444.19
322.649	481.19
322.878	481.19
323.108	500.19
323.337	531.19
323.566	559.19
323.795	594.19
324.024	631.19
324.253	803.19
324.482	1151.19
324.71	1728.19
324.939	2521.19
325.168	2183.19
325.397	1125.19
325.626	730.19
325.855	613.19
326.084	577.19
326.313	553.19
326.542	567.19
326.77	631.19
326.999	694.19
327.228	1011.19
327.457	1509.19
327.686	1857.19
327.914	1244.19
328.143	819.19
328.372	716.19
328.6	649.19
328.829	621.19
329.058	627.19
329.287	644.19
329.515	588.19
329.744	548.19
329.972	538.19
330.201	557.19
330.43	577.19
330.658	612.19
330.887	645.19
331.115	623.19
331.344	553.19
331.572	518.19
331.801	529.19
332.03	511.19
332.258	492.19
332.486	445.19
332.715	448.19
332.943	460.19
333.172	466.19
333.4	464.19
333.629	467.19
333.857	477.19
334.085	493.19
334.314	476.19
334.542	483.19
334.771	485.19
334.999	460.19
335.227	477.19
335.455	474.19
335.684	443.19
335.912	446.19
336.14	439.19
336.369	441.19
336.597	473.19
336.825	473.19
337.053	452.19
337.281	462.19
337.51	438.19
337.738	448.19
337.966	458.19
338.194	440.19
338.422	475.19
338.65	453.19
338.878	433.19
339.106	426.19
339.334	426.19
339.562	434.19
339.79	435.19
340.018	443.19
340.246	443.19
340.474	430.19
340.702	464.19
340.93	434.19
341.158	427.19
341.386	460.19
341.614	435.19
341.842	464.19
342.07	430.19
342.298	444.19
342.526	435.19
342.754	441.19
342.981	415.19
343.209	406.19
343.437	448.19
343.665	432.19
343.893	449.19
344.12	453.19
344.348	452.19
344.576	416.19
344.804	431.19
345.031	457.19
345.259	487.19
345.487	464.19
345.714	458.19
345.942	424.19
346.17	437.19
346.397	441.19
346.625	421.19
346.853	419.19
347.08	440.19
347.308	430.19
347.535	442.19
347.763	451.19
347.99	448.19
348.218	437.19
348.445	423.19
348.673	437.19
348.9	435.19
349.128	441.19
349.355	420.19
349.583	426.19
349.81	396.19
350.037	405.19
350.265	401.19
350.492	415.19
350.72	422.19
350.947	413.19
351.174	450.19
351.402	430.19
351.629	452.19
351.856	427.19
352.083	435.19
352.311	443.19
352.538	419.19
352.765	453.19
352.992	452.19
353.22	439.19
353.447	419.19
353.674	425.19
353.901	398.19
354.128	409.19
354.355	400.19
354.583	393.19
354.81	385.19
355.037	380.19
355.264	408.19
355.491	395.19
355.718	380.19
355.945	383.19
356.172	381.19
356.399	389.19
356.626	380.19
356.853	390.19
357.08	400.19
357.307	382.19
357.534	383.19
357.761	374.19
357.988	398.19
358.215	390.19
358.441	402.19
358.668	395.19
358.895	407.19
359.122	425.19
359.349	410.19
359.576	435.19
359.802	453.19
360.029	465.19
360.256	506.19
360.483	469.19
360.709	445.19
360.936	435.19
361.163	425.19
361.39	421.19
361.616	396.19
361.843	397.19
362.07	422.19
362.296	426.19
362.523	413.19
362.749	430.19
362.976	409.19
363.203	383.19
363.429	399.19
363.656	419.19
363.882	366.19
364.109	389.19
364.335	417.19
364.562	399.19
364.788	382.19
365.015	386.19
365.241	404.19
365.468	395.19
365.694	395.19
365.92	394.19
366.147	395.19
366.373	399.19
366.599	399.19
366.826	384.19
367.052	395.19
367.278	390.19
367.505	411.19
367.731	392.19
367.957	407.19
368.184	388.19
368.41	399.19
368.636	410.19
368.862	397.19
369.089	399.19
369.315	381.19
369.541	401.19
369.767	368.19
369.993	388.19
370.219	399.19
370.445	393.19
370.672	396.19
370.898	371.19
371.124	397.19
371.35	408.19
371.576	375.19
371.802	395.19
372.028	390.19
372.254	400.19
372.48	407.19
372.706	373.19
372.932	380.19
373.158	381.19
373.384	385.19
373.61	382.19
373.835	389.19
374.061	397.19
374.287	392.19
374.513	397.19
374.739	382.19
374.965	380.19
375.191	379.19
375.416	360.19
375.642	393.19
375.868	391.19
376.094	390.19
376.319	378.19
376.545	375.19
376.771	378.19
376.997	377.19
377.222	382.19
377.448	385.19
377.674	367.19
377.899	364.19
378.125	379.19
378.35	387.19
378.576	364.19
378.802	384.19
379.027	377.19
379.253	402.19
379.478	375.19
379.704	372.19
379.929	391.19
380.155	384.19
380.38	375.19
380.606	376.19
380.831	375.19
381.057	380.19
381.282	379.19
381.507	407.19
381.733	383.19
381.958	380.19
382.184	387.19
382.409	395.19
382.634	384.19
382.86	385.19
383.085	410.19
383.31	379.19
383.535	419.19
383.761	401.19
383.986	407.19
384.211	412.19
384.436	408.19
384.662	380.19
384.887	393.19
385.112	402.19
385.337	404.19
385.562	409.19
385.787	398.19
386.013	400.19
386.238	412.19
386.463	424.19
386.688	411.19
386.913	412.19
387.138	414.19
387.363	409.19
387.588	415.19
387.813	401.19
388.038	380.19
388.263	408.19
388.488	420.19
388.713	417.19
388.938	412.19
389.163	418.19
389.387	413.19
389.612	411.19
389.837	410.19
390.062	417.19
390.287	421.19
390.512	386.19
390.736	399.19
390.961	392.19
391.186	393.19
391.411	415.19
391.636	411.19
391.86	412.19
392.085	424.19
392.31	407.19
392.534	401.19
392.759	383.19
392.984	394.19
393.208	391.19
393.433	410.19
393.658	400.19
393.882	392.19
394.107	419.19
394.331	390.19
394.556	390.19
394.78	398.19
395.005	395.19
395.229	414.19
395.454	409.19
395.678	423.19
395.903	408.19
396.127	447.19
396.352	447.19
396.576	439.19
396.801	418.19
397.025	421.19
397.249	415.19
397.474	419.19
397.698	437.19
397.922	432.19
398.147	448.19
398.371	459.19
398.595	439.19
398.82	440.19
399.044	458.19
399.268	451.19
399.492	485.19
399.717	502.19
399.941	502.19
400.165	560.19
400.389	584.19
400.613	521.19
400.837	491.19
401.062	462.19
401.286	433.19
401.51	456.19
401.734	447.19
401.958	458.19
402.182	479.19
402.406	468.19
402.63	464.19
402.854	461.19
403.078	453.19
403.302	451.19
403.526	483.19
403.75	470.19
403.974	476.19
404.198	474.19
404.422	470.19
404.645	466.19
404.869	476.19
405.093	490.19
405.317	518.19
405.541	564.19
405.765	513.19
405.988	518.19
406.212	499.19
406.436	527.19
406.66	553.19
406.883	534.19
407.107	521.19
407.331	563.19
407.555	618.19
407.778	641.19
408.002	572.19
408.226	546.19
408.449	515.19
408.673	526.19
408.896	549.19
409.12	581.19
409.344	572.19
409.567	490.19
409.791	486.19
410.014	462.19
410.238	460.19
410.461	473.19
410.685	478.19
410.908	499.19
411.132	519.19
411.355	556.19
411.578	553.19
411.802	480.19
412.025	472.19
412.249	467.19
412.472	465.19
412.695	513.19
412.919	488.19
413.142	453.19
413.365	430.19
413.589	453.19
413.812	436.19
414.035	445.19
414.258	427.19
414.482	446.19
414.705	448.19
414.928	439.19
415.151	423.19
415.374	405.19
415.597	418.19
415.821	428.19
416.044	438.19
416.267	422.19
416.49	423.19
416.713	441.19
416.936	438.19
417.159	437.19
417.382	436.19
417.605	456.19
417.828	459.19
418.051	445.19
418.274	453.19
418.497	453.19
418.72	454.19
418.943	434.19
419.166	440.19
419.389	479.19
419.611	484.19
419.834	450.19
420.057	473.19
420.28	445.19
420.503	458.19
420.726	461.19
420.948	493.19
421.171	533.19
421.394	571.19
421.617	480.19
421.839	476.19
422.062	477.19
422.285	484.19
422.507	524.19
422.73	597.19
422.953	614.19
423.175	502.19
423.398	504.19
423.621	489.19
423.843	510.19
424.066	517.19
424.288	524.19
424.511	517.19
424.733	583.19
424.956	656.19
425.178	655.19
425.401	658.19
425.623	665.19
425.846	558.19
426.068	533.19
426.291	492.19
426.513	531.19
426.735	526.19
426.958	564.19
427.18	638.19
427.402	750.19
427.625	863.19
427.847	757.19
428.069	651.19
428.292	573.19
428.514	533.19
428.736	494.19
428.958	488.19
429.181	469.19
429.403	472.19
429.625	492.19
429.847	517.19
430.069	577.19
430.292	573.19
430.514	525.19
430.736	462.19
430.958	464.19
431.18	455.19
431.402	438.19
431.624	445.19
431.846	431.19
432.068	439.19
432.29	451.19
432.512	444.19
432.734	458.19
432.956	462.19
433.178	475.19
433.4	474.19
433.622	459.19
433.844	444.19
434.066	439.19
434.287	464.19
434.509	438.19
434.731	439.19
434.953	470.19
435.175	477.19
435.397	494.19
435.618	500.19
435.84	557.19
436.062	645.19
436.284	724.19
436.505	576.19
436.727	534.19
436.949	481.19
437.17	475.19
437.392	484.19
437.614	477.19
437.835	524.19
438.057	640.19
438.278	730.19
438.5	719.19
438.721	780.19
438.943	749.19
439.165	588.19
439.386	539.19
439.608	529.19
439.829	558.19
440.05	553.19
440.272	613.19
440.493	582.19
440.715	521.19
440.936	482.19
441.158	485.19
441.379	476.19
441.6	494.19
441.822	520.19
442.043	558.19
442.264	616.19
442.486	687.19
442.707	583.19
442.928	543.19
443.149	535.19
443.371	561.19
443.592	591.19
443.813	703.19
444.034	734.19
444.255	599.19
444.476	540.19
444.698	519.19
444.919	529.19
445.14	607.19
445.361	564.19
445.582	541.19
445.803	588.19
446.024	722.19
446.245	722.19
446.466	646.19
446.687	551.19
446.908	513.19
447.129	496.19
447.35	480.19
447.571	470.19
447.792	467.19
448.013	481.19
448.234	503.19
448.455	537.19
448.675	682.19
448.896	775.19
449.117	641.19
449.338	635.19
449.559	710.19
449.779	782.19
450	656.19
450.221	546.19
450.442	485.19
450.662	497.19
450.883	485.19
451.104	511.19
451.324	470.19
451.545	475.19
451.766	435.19
451.986	433.19
452.207	435.19
452.428	422.19
452.648	411.19
452.869	425.19
453.089	460.19
453.31	447.19
453.53	419.19
453.751	447.19
453.971	433.19
454.192	465.19
454.412	427.19
454.633	424.19
454.853	417.19
455.073	447.19
455.294	430.19
455.514	526.19
455.734	518.19
455.955	432.19
456.175	404.19
456.395	407.19
456.616	418.19
456.836	392.19
457.056	381.19
457.276	389.19
457.497	415.19
457.717	395.19
457.937	401.19
458.157	407.19
458.377	418.19
458.598	428.19
458.818	512.19
459.038	611.19
459.258	575.19
459.478	521.19
459.698	468.19
459.918	445.19
460.138	425.19
460.358	439.19
460.578	447.19
460.798	431.19
461.018	451.19
461.238	420.19
461.458	437.19
461.678	418.19
461.898	439.19
462.118	427.19
462.338	444.19
462.558	437.19
462.777	431.19
462.997	444.19
463.217	454.19
463.437	472.19
463.657	455.19
463.876	457.19
464.096	461.19
464.316	448.19
464.536	467.19
464.755	475.19
464.975	468.19
465.195	517.19
465.414	602.19
465.634	528.19
465.854	489.19
466.073	444.19
466.293	451.19
466.512	441.19
466.732	422.19
466.951	411.19
467.171	423.19
467.391	418.19
467.61	426.19
467.829	449.19
468.049	439.19
468.268	438.19
468.488	425.19
468.707	441.19
468.927	407.19
469.146	420.19
469.365	423.19
469.585	403.19
469.804	439.19
470.023	423.19
470.243	439.19
470.462	430.19
470.681	455.19
470.901	442.19
471.12	449.19
471.339	433.19
471.558	432.19
471.777	436.19
471.997	417.19
472.216	424.19
472.435	413.19
472.654	417.19
472.873	431.19
473.092	446.19
473.311	417.19
473.53	418.19
473.749	451.19
473.968	483.19
474.187	614.19
474.406	632.19
474.625	484.19
474.844	463.19
475.063	447.19
475.282	426.19
475.501	454.19
475.72	448.19
475.939	446.19
476.158	449.19
476.377	447.19
476.596	443.19
476.814	437.19
477.033	460.19
477.252	483.19
477.471	466.19
477.69	455.19
477.908	454.19
478.127	469.19
478.346	480.19
478.564	451.19
478.783	446.19
479.002	480.19
479.22	502.19
479.439	499.19
479.658	517.19
479.876	499.19
480.095	536.19
480.313	536.19
480.532	536.19
480.751	526.19
480.969	533.19
481.188	566.19
481.406	543.19
481.624	507.19
481.843	504.19
482.061	519.19
482.28	504.19
482.498	488.19
482.717	484.19
482.935	510.19
483.153	492.19
483.372	489.19
483.59	514.19
483.808	503.19
484.027	496.19
484.245	485.19
484.463	498.19
484.681	527.19
484.9	519.19
485.118	501.19
485.336	524.19
485.554	521.19
485.772	529.19
485.99	536.19
486.209	517.19
486.427	525.19
486.645	523.19
486.863	541.19
487.081	564.19
487.299	529.19
487.517	537.19
487.735	555.19
487.953	527.19
488.171	542.19
488.389	541.19
488.607	559.19
488.825	555.19
489.043	535.19
489.261	544.19
489.479	549.19
489.696	590.19
489.914	563.19
490.132	547.19
490.35	563.19
490.568	569.19
490.786	551.19
491.003	581.19
491.221	591.19
491.439	600.19
491.657	586.19
491.874	627.19
492.092	632.19
492.31	639.19
492.527	608.19
492.745	641.19
492.963	629.19
493.18	651.19
493.398	633.19
493.615	638.19
493.833	655.19
494.05	637.19
494.268	645.19
494.485	631.19
494.703	650.19
494.92	624.19
495.138	620.19
495.355	641.19
495.573	653.19
495.79	677.19
496.008	657.19
496.225	645.19
496.442	645.19
496.66	664.19
496.877	638.19
497.094	659.19
497.312	671.19
497.529	634.19
497.746	653.19
497.963	669.19
498.181	683.19
498.398	689.19
498.615	712.19
498.832	723.19
499.049	733.19
499.267	702.19
499.484	743.19
499.701	769.19
499.918	792.19
500.135	806.19
500.352	828.19
500.569	837.19
500.786	835.19
501.003	819.19
501.22	826.19
501.437	784.19
501.654	779.19
501.871	794.19
