Data from 1989.PennyLincolnUp.Lamp.En5.5.200Scan.071819.P2_HRD10591_17-24-30-976.txt Node
Date: Thu Jul 18 17:24:30 EDT 2019
User: cochatt
Spectrometer: HR+D1059
Trigger mode: 1
Integration Time (sec): 1.000000E-1
Scans to average: 1
Electric dark correction enabled: true
Nonlinearity correction enabled: false
Boxcar width: 0
XAxis mode: Wavelengths
Number of Pixels in Spectrum: 2048
>>>>>Begin Spectral Data<<<<<
223.165	-9.81
223.4	-9.81
223.635	-9.81
223.869	-18.81
224.104	-31.81
224.338	-19.81
224.573	-9.81
224.808	-0.81
225.042	-20.81
225.277	-9.81
225.511	4.19
225.746	19.19
225.98	8.19
226.215	8.19
226.449	12.19
226.683	15.19
226.918	24.19
227.152	30.19
227.387	32.19
227.621	43.19
227.856	42.19
228.09	61.19
228.324	49.19
228.559	54.19
228.793	72.19
229.027	106.19
229.262	114.19
229.496	108.19
229.73	150.19
229.964	164.19
230.199	139.19
230.433	120.19
230.667	116.19
230.901	122.19
231.136	117.19
231.37	111.19
231.604	103.19
231.838	126.19
232.072	132.19
232.306	119.19
232.541	104.19
232.775	115.19
233.009	135.19
233.243	108.19
233.477	121.19
233.711	114.19
233.945	114.19
234.179	119.19
234.413	124.19
234.647	104.19
234.881	114.19
235.115	109.19
235.349	138.19
235.583	128.19
235.817	130.19
236.051	139.19
236.285	131.19
236.519	132.19
236.753	142.19
236.987	157.19
237.221	185.19
237.455	238.19
237.689	183.19
237.922	146.19
238.156	140.19
238.39	138.19
238.624	137.19
238.858	119.19
239.091	136.19
239.325	128.19
239.559	131.19
239.793	127.19
240.027	146.19
240.26	144.19
240.494	162.19
240.728	175.19
240.961	165.19
241.195	135.19
241.429	145.19
241.662	150.19
241.896	133.19
242.13	137.19
242.363	138.19
242.597	135.19
242.83	140.19
243.064	153.19
243.298	152.19
243.531	139.19
243.765	142.19
243.998	158.19
244.232	150.19
244.465	134.19
244.699	159.19
244.932	141.19
245.166	159.19
245.399	159.19
245.633	158.19
245.866	145.19
246.099	152.19
246.333	164.19
246.566	148.19
246.8	155.19
247.033	164.19
247.266	171.19
247.5	182.19
247.733	178.19
247.966	179.19
248.2	185.19
248.433	196.19
248.666	182.19
248.899	217.19
249.133	220.19
249.366	220.19
249.599	220.19
249.832	203.19
250.066	185.19
250.299	191.19
250.532	192.19
250.765	198.19
250.998	230.19
251.231	244.19
251.465	239.19
251.698	227.19
251.931	226.19
252.164	224.19
252.397	216.19
252.63	200.19
252.863	215.19
253.096	220.19
253.329	236.19
253.562	264.19
253.795	232.19
254.028	228.19
254.261	228.19
254.494	249.19
254.727	278.19
254.96	301.19
255.193	304.19
255.426	279.19
255.659	236.19
255.892	256.19
256.124	237.19
256.357	240.19
256.59	237.19
256.823	227.19
257.056	206.19
257.289	229.19
257.521	222.19
257.754	207.19
257.987	207.19
258.22	218.19
258.452	226.19
258.685	233.19
258.918	214.19
259.151	229.19
259.383	218.19
259.616	235.19
259.849	231.19
260.081	269.19
260.314	280.19
260.547	276.19
260.779	275.19
261.012	268.19
261.244	252.19
261.477	239.19
261.71	235.19
261.942	242.19
262.175	255.19
262.407	255.19
262.64	235.19
262.872	235.19
263.105	223.19
263.337	211.19
263.57	231.19
263.802	231.19
264.035	227.19
264.267	235.19
264.499	243.19
264.732	242.19
264.964	219.19
265.197	219.19
265.429	222.19
265.661	252.19
265.894	232.19
266.126	228.19
266.358	252.19
266.591	230.19
266.823	248.19
267.055	246.19
267.287	220.19
267.52	245.19
267.752	235.19
267.984	236.19
268.216	244.19
268.448	263.19
268.681	261.19
268.913	266.19
269.145	262.19
269.377	318.19
269.609	310.19
269.841	295.19
270.073	276.19
270.306	318.19
270.538	336.19
270.77	344.19
271.002	333.19
271.234	318.19
271.466	329.19
271.698	344.19
271.93	347.19
272.162	332.19
272.394	344.19
272.626	327.19
272.858	294.19
273.09	303.19
273.322	300.19
273.553	301.19
273.785	290.19
274.017	277.19
274.249	281.19
274.481	293.19
274.713	283.19
274.945	297.19
275.176	296.19
275.408	283.19
275.64	290.19
275.872	281.19
276.104	287.19
276.335	296.19
276.567	269.19
276.799	310.19
277.031	318.19
277.262	344.19
277.494	355.19
277.726	338.19
277.957	309.19
278.189	295.19
278.421	293.19
278.652	284.19
278.884	288.19
279.115	300.19
279.347	264.19
279.579	291.19
279.81	293.19
280.042	294.19
280.273	279.19
280.505	287.19
280.736	284.19
280.968	294.19
281.199	284.19
281.431	288.19
281.662	303.19
281.894	284.19
282.125	286.19
282.356	323.19
282.588	327.19
282.819	323.19
283.051	310.19
283.282	278.19
283.513	309.19
283.745	284.19
283.976	290.19
284.207	291.19
284.439	290.19
284.67	304.19
284.901	301.19
285.132	303.19
285.364	290.19
285.595	316.19
285.826	298.19
286.057	279.19
286.288	300.19
286.52	293.19
286.751	299.19
286.982	302.19
287.213	298.19
287.444	301.19
287.675	290.19
287.906	311.19
288.138	316.19
288.369	334.19
288.6	308.19
288.831	326.19
289.062	298.19
289.293	300.19
289.524	310.19
289.755	292.19
289.986	286.19
290.217	296.19
290.448	314.19
290.679	302.19
290.91	313.19
291.141	297.19
291.371	299.19
291.602	298.19
291.833	303.19
292.064	298.19
292.295	299.19
292.526	315.19
292.757	304.19
292.987	302.19
293.218	291.19
293.449	328.19
293.68	316.19
293.91	302.19
294.141	300.19
294.372	314.19
294.603	308.19
294.833	308.19
295.064	298.19
295.295	311.19
295.525	299.19
295.756	309.19
295.987	315.19
296.217	340.19
296.448	344.19
296.679	327.19
296.909	319.19
297.14	329.19
297.37	319.19
297.601	330.19
297.831	331.19
298.062	284.19
298.292	301.19
298.523	330.19
298.753	327.19
298.984	324.19
299.214	335.19
299.445	299.19
299.675	336.19
299.905	327.19
300.136	355.19
300.366	333.19
300.597	319.19
300.827	339.19
301.057	333.19
301.288	341.19
301.518	358.19
301.748	329.19
301.979	315.19
302.209	333.19
302.439	356.19
302.669	343.19
302.9	346.19
303.13	351.19
303.36	357.19
303.59	362.19
303.82	347.19
304.051	362.19
304.281	344.19
304.511	343.19
304.741	331.19
304.971	332.19
305.201	341.19
305.431	356.19
305.661	332.19
305.891	339.19
306.121	338.19
306.352	339.19
306.582	356.19
306.812	348.19
307.042	334.19
307.272	342.19
307.502	351.19
307.731	347.19
307.961	332.19
308.191	357.19
308.421	357.19
308.651	361.19
308.881	358.19
309.111	366.19
309.341	365.19
309.571	353.19
309.8	376.19
310.03	383.19
310.26	390.19
310.49	416.19
310.72	419.19
310.949	412.19
311.179	412.19
311.409	406.19
311.639	396.19
311.868	390.19
312.098	382.19
312.328	409.19
312.557	416.19
312.787	435.19
313.017	434.19
313.246	410.19
313.476	416.19
313.706	398.19
313.935	398.19
314.165	413.19
314.394	415.19
314.624	406.19
314.853	414.19
315.083	379.19
315.312	408.19
315.542	386.19
315.771	404.19
316.001	374.19
316.23	381.19
316.46	391.19
316.689	398.19
316.919	404.19
317.148	404.19
317.377	411.19
317.607	399.19
317.836	388.19
318.065	388.19
318.295	405.19
318.524	400.19
318.753	403.19
318.983	411.19
319.212	379.19
319.441	385.19
319.67	388.19
319.9	422.19
320.129	396.19
320.358	394.19
320.587	400.19
320.816	420.19
321.046	428.19
321.275	415.19
321.504	428.19
321.733	431.19
321.962	425.19
322.191	442.19
322.42	458.19
322.649	486.19
322.878	480.19
323.108	495.19
323.337	502.19
323.566	542.19
323.795	568.19
324.024	633.19
324.253	758.19
324.482	1059.19
324.71	1690.19
324.939	2364.19
325.168	2031.19
325.397	1059.19
325.626	708.19
325.855	600.19
326.084	543.19
326.313	542.19
326.542	548.19
326.77	623.19
326.999	702.19
327.228	974.19
327.457	1475.19
327.686	1768.19
327.914	1217.19
328.143	778.19
328.372	661.19
328.6	618.19
328.829	612.19
329.058	627.19
329.287	623.19
329.515	555.19
329.744	525.19
329.972	511.19
330.201	534.19
330.43	549.19
330.658	585.19
330.887	622.19
331.115	630.19
331.344	574.19
331.572	522.19
331.801	508.19
332.03	506.19
332.258	475.19
332.486	486.19
332.715	464.19
332.943	464.19
333.172	464.19
333.4	481.19
333.629	477.19
333.857	468.19
334.085	477.19
334.314	469.19
334.542	454.19
334.771	486.19
334.999	496.19
335.227	457.19
335.455	450.19
335.684	456.19
335.912	451.19
336.14	445.19
336.369	449.19
336.597	435.19
336.825	471.19
337.053	468.19
337.281	431.19
337.51	439.19
337.738	464.19
337.966	464.19
338.194	451.19
338.422	447.19
338.65	400.19
338.878	432.19
339.106	428.19
339.334	427.19
339.562	452.19
339.79	434.19
340.018	432.19
340.246	426.19
340.474	455.19
340.702	444.19
340.93	442.19
341.158	428.19
341.386	446.19
341.614	459.19
341.842	451.19
342.07	439.19
342.298	437.19
342.526	422.19
342.754	428.19
342.981	421.19
343.209	419.19
343.437	427.19
343.665	430.19
343.893	440.19
344.12	433.19
344.348	445.19
344.576	442.19
344.804	452.19
345.031	474.19
345.259	456.19
345.487	460.19
345.714	445.19
345.942	419.19
346.17	438.19
346.397	397.19
346.625	424.19
346.853	429.19
347.08	442.19
347.308	428.19
347.535	427.19
347.763	441.19
347.99	464.19
348.218	444.19
348.445	450.19
348.673	450.19
348.9	437.19
349.128	423.19
349.355	427.19
349.583	402.19
349.81	399.19
350.037	404.19
350.265	417.19
350.492	407.19
350.72	411.19
350.947	405.19
351.174	420.19
351.402	451.19
351.629	438.19
351.856	438.19
352.083	423.19
352.311	431.19
352.538	456.19
352.765	440.19
352.992	428.19
353.22	430.19
353.447	437.19
353.674	406.19
353.901	425.19
354.128	401.19
354.355	383.19
354.583	402.19
354.81	405.19
355.037	395.19
355.264	374.19
355.491	398.19
355.718	387.19
355.945	394.19
356.172	393.19
356.399	391.19
356.626	374.19
356.853	387.19
357.08	394.19
357.307	377.19
357.534	393.19
357.761	388.19
357.988	388.19
358.215	374.19
358.441	395.19
358.668	375.19
358.895	395.19
359.122	405.19
359.349	416.19
359.576	412.19
359.802	453.19
360.029	470.19
360.256	480.19
360.483	494.19
360.709	416.19
360.936	397.19
361.163	424.19
361.39	424.19
361.616	413.19
361.843	407.19
362.07	419.19
362.296	427.19
362.523	425.19
362.749	420.19
362.976	419.19
363.203	378.19
363.429	389.19
363.656	406.19
363.882	407.19
364.109	408.19
364.335	384.19
364.562	399.19
364.788	401.19
365.015	383.19
365.241	392.19
365.468	391.19
365.694	412.19
365.92	405.19
366.147	378.19
366.373	401.19
366.599	398.19
366.826	390.19
367.052	406.19
367.278	396.19
367.505	390.19
367.731	407.19
367.957	406.19
368.184	384.19
368.41	401.19
368.636	413.19
368.862	420.19
369.089	396.19
369.315	406.19
369.541	394.19
369.767	382.19
369.993	378.19
370.219	377.19
370.445	384.19
370.672	394.19
370.898	394.19
371.124	397.19
371.35	395.19
371.576	399.19
371.802	390.19
372.028	379.19
372.254	379.19
372.48	396.19
372.706	380.19
372.932	396.19
373.158	383.19
373.384	395.19
373.61	374.19
373.835	400.19
374.061	391.19
374.287	381.19
374.513	395.19
374.739	398.19
374.965	383.19
375.191	373.19
375.416	376.19
375.642	397.19
375.868	390.19
376.094	382.19
376.319	371.19
376.545	367.19
376.771	370.19
376.997	361.19
377.222	375.19
377.448	376.19
377.674	372.19
377.899	364.19
378.125	370.19
378.35	364.19
378.576	378.19
378.802	375.19
379.027	356.19
379.253	382.19
379.478	371.19
379.704	369.19
379.929	381.19
380.155	373.19
380.38	395.19
380.606	406.19
380.831	388.19
381.057	369.19
381.282	376.19
381.507	387.19
381.733	398.19
381.958	392.19
382.184	380.19
382.409	390.19
382.634	382.19
382.86	398.19
383.085	396.19
383.31	396.19
383.535	376.19
383.761	391.19
383.986	406.19
384.211	392.19
384.436	388.19
384.662	413.19
384.887	394.19
385.112	390.19
385.337	384.19
385.562	385.19
385.787	412.19
386.013	429.19
386.238	416.19
386.463	410.19
386.688	389.19
386.913	405.19
387.138	395.19
387.363	414.19
387.588	408.19
387.813	422.19
388.038	381.19
388.263	397.19
388.488	394.19
388.713	390.19
388.938	393.19
389.163	394.19
389.387	437.19
389.612	400.19
389.837	402.19
390.062	399.19
390.287	392.19
390.512	414.19
390.736	411.19
390.961	413.19
391.186	416.19
391.411	387.19
391.636	412.19
391.86	422.19
392.085	418.19
392.31	408.19
392.534	404.19
392.759	394.19
392.984	418.19
393.208	403.19
393.433	397.19
393.658	400.19
393.882	416.19
394.107	415.19
394.331	413.19
394.556	382.19
394.78	403.19
395.005	408.19
395.229	414.19
395.454	409.19
395.678	399.19
395.903	402.19
396.127	443.19
396.352	450.19
396.576	434.19
396.801	434.19
397.025	419.19
397.249	437.19
397.474	429.19
397.698	450.19
397.922	432.19
398.147	470.19
398.371	464.19
398.595	449.19
398.82	441.19
399.044	441.19
399.268	467.19
399.492	466.19
399.717	500.19
399.941	512.19
400.165	548.19
400.389	564.19
400.613	507.19
400.837	472.19
401.062	475.19
401.286	460.19
401.51	463.19
401.734	463.19
401.958	458.19
402.182	458.19
402.406	482.19
402.63	451.19
402.854	459.19
403.078	481.19
403.302	447.19
403.526	447.19
403.75	467.19
403.974	452.19
404.198	447.19
404.422	481.19
404.645	484.19
404.869	462.19
405.093	487.19
405.317	514.19
405.541	510.19
405.765	513.19
405.988	512.19
406.212	508.19
406.436	531.19
406.66	540.19
406.883	500.19
407.107	543.19
407.331	558.19
407.555	640.19
407.778	625.19
408.002	592.19
408.226	543.19
408.449	506.19
408.673	516.19
408.896	542.19
409.12	602.19
409.344	575.19
409.567	498.19
409.791	484.19
410.014	470.19
410.238	461.19
410.461	494.19
410.685	479.19
410.908	483.19
411.132	529.19
411.355	554.19
411.578	549.19
411.802	478.19
412.025	463.19
412.249	486.19
412.472	471.19
412.695	491.19
412.919	499.19
413.142	470.19
413.365	444.19
413.589	444.19
413.812	432.19
414.035	444.19
414.258	432.19
414.482	426.19
414.705	440.19
414.928	431.19
415.151	446.19
415.374	427.19
415.597	441.19
415.821	440.19
416.044	455.19
416.267	455.19
416.49	416.19
416.713	446.19
416.936	451.19
417.159	423.19
417.382	461.19
417.605	440.19
417.828	454.19
418.051	470.19
418.274	448.19
418.497	446.19
418.72	430.19
418.943	420.19
419.166	464.19
419.389	468.19
419.611	473.19
419.834	474.19
420.057	482.19
420.28	469.19
420.503	457.19
420.726	447.19
420.948	464.19
421.171	497.19
421.394	545.19
421.617	517.19
421.839	461.19
422.062	452.19
422.285	487.19
422.507	554.19
422.73	615.19
422.953	579.19
423.175	525.19
423.398	494.19
423.621	481.19
423.843	518.19
424.066	501.19
424.288	501.19
424.511	499.19
424.733	571.19
424.956	652.19
425.178	633.19
425.401	624.19
425.623	638.19
425.846	568.19
426.068	517.19
426.291	525.19
426.513	487.19
426.735	529.19
426.958	547.19
427.18	647.19
427.402	769.19
427.625	860.19
427.847	739.19
428.069	617.19
428.292	560.19
428.514	520.19
428.736	506.19
428.958	483.19
429.181	477.19
429.403	436.19
429.625	484.19
429.847	509.19
430.069	590.19
430.292	610.19
430.514	493.19
430.736	482.19
430.958	474.19
431.18	463.19
431.402	447.19
431.624	430.19
431.846	444.19
432.068	452.19
432.29	448.19
432.512	424.19
432.734	444.19
432.956	438.19
433.178	470.19
433.4	460.19
433.622	439.19
433.844	428.19
434.066	434.19
434.287	447.19
434.509	406.19
434.731	422.19
434.953	434.19
435.175	484.19
435.397	504.19
435.618	509.19
435.84	546.19
436.062	640.19
436.284	714.19
436.505	572.19
436.727	562.19
436.949	503.19
437.17	486.19
437.392	472.19
437.614	460.19
437.835	502.19
438.057	618.19
438.278	715.19
438.5	694.19
438.721	766.19
438.943	773.19
439.165	612.19
439.386	543.19
439.608	557.19
439.829	541.19
440.05	551.19
440.272	603.19
440.493	569.19
440.715	492.19
440.936	489.19
441.158	474.19
441.379	469.19
441.6	489.19
441.822	500.19
442.043	532.19
442.264	624.19
442.486	671.19
442.707	582.19
442.928	542.19
443.149	539.19
443.371	544.19
443.592	594.19
443.813	683.19
444.034	754.19
444.255	616.19
444.476	536.19
444.698	529.19
444.919	516.19
445.14	602.19
445.361	570.19
445.582	547.19
445.803	616.19
446.024	735.19
446.245	738.19
446.466	660.19
446.687	561.19
446.908	530.19
447.129	499.19
447.35	480.19
447.571	484.19
447.792	459.19
448.013	474.19
448.234	524.19
448.455	561.19
448.675	663.19
448.896	754.19
449.117	646.19
449.338	607.19
449.559	698.19
449.779	768.19
450	636.19
450.221	530.19
450.442	475.19
450.662	468.19
450.883	483.19
451.104	489.19
451.324	474.19
451.545	456.19
451.766	438.19
451.986	415.19
452.207	425.19
452.428	412.19
452.648	439.19
452.869	436.19
453.089	445.19
453.31	452.19
453.53	428.19
453.751	434.19
453.971	448.19
454.192	455.19
454.412	438.19
454.633	414.19
454.853	427.19
455.073	425.19
455.294	452.19
455.514	496.19
455.734	503.19
455.955	431.19
456.175	416.19
456.395	389.19
456.616	413.19
456.836	400.19
457.056	389.19
457.276	402.19
457.497	408.19
457.717	393.19
457.937	396.19
458.157	413.19
458.377	401.19
458.598	443.19
458.818	487.19
459.038	584.19
459.258	599.19
459.478	489.19
459.698	442.19
459.918	450.19
460.138	445.19
460.358	436.19
460.578	450.19
460.798	444.19
461.018	456.19
461.238	427.19
461.458	451.19
461.678	426.19
461.898	446.19
462.118	427.19
462.338	439.19
462.558	460.19
462.777	455.19
462.997	451.19
463.217	463.19
463.437	458.19
463.657	450.19
463.876	462.19
464.096	480.19
464.316	442.19
464.536	452.19
464.755	462.19
464.975	479.19
465.195	535.19
465.414	590.19
465.634	521.19
465.854	491.19
466.073	464.19
466.293	447.19
466.512	431.19
466.732	424.19
466.951	442.19
467.171	429.19
467.391	414.19
467.61	449.19
467.829	447.19
468.049	432.19
468.268	411.19
468.488	403.19
468.707	413.19
468.927	394.19
469.146	407.19
469.365	425.19
469.585	410.19
469.804	425.19
470.023	438.19
470.243	407.19
470.462	432.19
470.681	454.19
470.901	438.19
471.12	425.19
471.339	413.19
471.558	434.19
471.777	417.19
471.997	402.19
472.216	409.19
472.435	426.19
472.654	431.19
472.873	446.19
473.092	431.19
473.311	426.19
473.53	427.19
473.749	441.19
473.968	493.19
474.187	580.19
474.406	588.19
474.625	476.19
474.844	454.19
475.063	435.19
475.282	431.19
475.501	421.19
475.72	449.19
475.939	451.19
476.158	444.19
476.377	460.19
476.596	439.19
476.814	474.19
477.033	486.19
477.252	460.19
477.471	446.19
477.69	456.19
477.908	471.19
478.127	454.19
478.346	462.19
478.564	478.19
478.783	483.19
479.002	485.19
479.22	482.19
479.439	499.19
479.658	521.19
479.876	508.19
480.095	503.19
480.313	554.19
480.532	510.19
480.751	539.19
480.969	512.19
481.188	514.19
481.406	540.19
481.624	522.19
481.843	520.19
482.061	516.19
482.28	511.19
482.498	496.19
482.717	498.19
482.935	491.19
483.153	493.19
483.372	514.19
483.59	492.19
483.808	511.19
484.027	493.19
484.245	504.19
484.463	512.19
484.681	512.19
484.9	511.19
485.118	540.19
485.336	501.19
485.554	524.19
485.772	522.19
485.99	517.19
486.209	532.19
486.427	525.19
486.645	533.19
486.863	546.19
487.081	575.19
487.299	537.19
487.517	519.19
487.735	522.19
487.953	536.19
488.171	535.19
488.389	547.19
488.607	547.19
488.825	559.19
489.043	529.19
489.261	557.19
489.479	545.19
489.696	551.19
489.914	555.19
490.132	553.19
490.35	564.19
490.568	567.19
490.786	581.19
491.003	594.19
491.221	586.19
491.439	630.19
491.657	610.19
491.874	600.19
492.092	593.19
492.31	632.19
492.527	632.19
492.745	617.19
492.963	639.19
493.18	637.19
493.398	629.19
493.615	617.19
493.833	650.19
494.05	645.19
494.268	635.19
494.485	636.19
494.703	631.19
494.92	645.19
495.138	646.19
495.355	659.19
495.573	649.19
495.79	637.19
496.008	635.19
496.225	645.19
496.442	656.19
496.66	635.19
496.877	652.19
497.094	643.19
497.312	653.19
497.529	669.19
497.746	686.19
497.963	656.19
498.181	700.19
498.398	699.19
498.615	714.19
498.832	711.19
499.049	722.19
499.267	730.19
499.484	737.19
499.701	744.19
499.918	800.19
500.135	793.19
500.352	818.19
500.569	833.19
500.786	823.19
501.003	811.19
501.22	840.19
501.437	806.19
501.654	792.19
501.871	811.19
