Data from 1989.PennyLincolnUp.Lamp.En5.5.200Scan.071819.P2_HRD10591_17-24-45-973.txt Node
Date: Thu Jul 18 17:24:45 EDT 2019
User: cochatt
Spectrometer: HR+D1059
Trigger mode: 1
Integration Time (sec): 1.000000E-1
Scans to average: 1
Electric dark correction enabled: true
Nonlinearity correction enabled: false
Boxcar width: 0
XAxis mode: Wavelengths
Number of Pixels in Spectrum: 2048
>>>>>Begin Spectral Data<<<<<
223.165	-13
223.4	-13
223.635	-13
223.869	-37
224.104	-34
224.338	-17
224.573	-15
224.808	-16
225.042	2
225.277	-7
225.511	-5
225.746	14
225.98	24
226.215	-5
226.449	22
226.683	28
226.918	29
227.152	30
227.387	25
227.621	59
227.856	57
228.09	60
228.324	66
228.559	71
228.793	67
229.027	94
229.262	116
229.496	130
229.73	148
229.964	160
230.199	132
230.433	118
230.667	109
230.901	127
231.136	113
231.37	102
231.604	119
231.838	114
232.072	103
232.306	103
232.541	121
232.775	112
233.009	118
233.243	109
233.477	117
233.711	109
233.945	108
234.179	110
234.413	110
234.647	121
234.881	123
235.115	115
235.349	137
235.583	125
235.817	123
236.051	124
236.285	127
236.519	130
236.753	126
236.987	149
237.221	181
237.455	233
237.689	198
237.922	144
238.156	136
238.39	124
238.624	127
238.858	130
239.091	131
239.325	137
239.559	125
239.793	144
240.027	129
240.26	145
240.494	165
240.728	157
240.961	155
241.195	150
241.429	127
241.662	137
241.896	149
242.13	134
242.363	138
242.597	133
242.83	141
243.064	156
243.298	151
243.531	142
243.765	130
243.998	140
244.232	149
244.465	157
244.699	151
244.932	140
245.166	154
245.399	135
245.633	154
245.866	148
246.099	140
246.333	170
246.566	150
246.8	155
247.033	180
247.266	158
247.5	160
247.733	188
247.966	176
248.2	183
248.433	194
248.666	179
248.899	192
249.133	215
249.366	223
249.599	217
249.832	219
250.066	192
250.299	188
250.532	198
250.765	200
250.998	229
251.231	256
251.465	228
251.698	214
251.931	222
252.164	206
252.397	221
252.63	217
252.863	215
253.096	261
253.329	243
253.562	239
253.795	242
254.028	246
254.261	225
254.494	254
254.727	282
254.96	321
255.193	299
255.426	266
255.659	253
255.892	242
256.124	246
256.357	249
256.59	239
256.823	228
257.056	231
257.289	236
257.521	225
257.754	219
257.987	217
258.22	202
258.452	212
258.685	212
258.918	210
259.151	232
259.383	253
259.616	236
259.849	242
260.081	261
260.314	280
260.547	297
260.779	276
261.012	268
261.244	249
261.477	243
261.71	235
261.942	247
262.175	253
262.407	242
262.64	243
262.872	234
263.105	242
263.337	237
263.57	235
263.802	222
264.035	243
264.267	243
264.499	213
264.732	212
264.964	216
265.197	220
265.429	234
265.661	222
265.894	219
266.126	221
266.358	215
266.591	226
266.823	258
267.055	240
267.287	242
267.52	233
267.752	236
267.984	240
268.216	234
268.448	241
268.681	260
268.913	262
269.145	283
269.377	287
269.609	290
269.841	283
270.073	304
270.306	313
270.538	329
270.77	331
271.002	346
271.234	324
271.466	314
271.698	321
271.93	333
272.162	330
272.394	333
272.626	332
272.858	315
273.09	307
273.322	306
273.553	284
273.785	284
274.017	281
274.249	293
274.481	276
274.713	299
274.945	289
275.176	271
275.408	286
275.64	292
275.872	277
276.104	272
276.335	272
276.567	276
276.799	308
277.031	314
277.262	341
277.494	345
277.726	307
277.957	319
278.189	306
278.421	291
278.652	294
278.884	300
279.115	272
279.347	276
279.579	269
279.81	278
280.042	282
280.273	291
280.505	285
280.736	275
280.968	286
281.199	284
281.431	278
281.662	285
281.894	267
282.125	281
282.356	314
282.588	322
282.819	315
283.051	293
283.282	284
283.513	280
283.745	288
283.976	290
284.207	307
284.439	292
284.67	297
284.901	319
285.132	290
285.364	300
285.595	277
285.826	281
286.057	292
286.288	291
286.52	294
286.751	298
286.982	298
287.213	308
287.444	284
287.675	300
287.906	325
288.138	326
288.369	318
288.6	300
288.831	316
289.062	307
289.293	308
289.524	306
289.755	315
289.986	293
290.217	286
290.448	290
290.679	290
290.91	294
291.141	304
291.371	301
291.602	306
291.833	308
292.064	290
292.295	290
292.526	308
292.757	282
292.987	287
293.218	299
293.449	319
293.68	306
293.91	295
294.141	308
294.372	295
294.603	287
294.833	305
295.064	307
295.295	306
295.525	308
295.756	308
295.987	323
296.217	344
296.448	349
296.679	319
296.909	308
297.14	325
297.37	311
297.601	311
297.831	310
298.062	316
298.292	299
298.523	319
298.753	302
298.984	317
299.214	323
299.445	314
299.675	322
299.905	321
300.136	321
300.366	312
300.597	328
300.827	322
301.057	334
301.288	343
301.518	334
301.748	325
301.979	322
302.209	338
302.439	337
302.669	332
302.9	327
303.13	340
303.36	343
303.59	315
303.82	346
304.051	339
304.281	341
304.511	333
304.741	348
304.971	344
305.201	347
305.431	341
305.661	352
305.891	336
306.121	331
306.352	354
306.582	361
306.812	353
307.042	333
307.272	338
307.502	348
307.731	354
307.961	354
308.191	331
308.421	326
308.651	333
308.881	361
309.111	350
309.341	353
309.571	374
309.8	374
310.03	383
310.26	390
310.49	389
310.72	397
310.949	418
311.179	428
311.409	408
311.639	392
311.868	411
312.098	388
312.328	407
312.557	414
312.787	437
313.017	417
313.246	428
313.476	406
313.706	389
313.935	409
314.165	423
314.394	411
314.624	427
314.853	389
315.083	389
315.312	394
315.542	388
315.771	390
316.001	349
316.23	390
316.46	390
316.689	380
316.919	399
317.148	412
317.377	412
317.607	401
317.836	406
318.065	409
318.295	380
318.524	376
318.753	377
318.983	407
319.212	405
319.441	410
319.67	420
319.9	422
320.129	410
320.358	391
320.587	396
320.816	409
321.046	401
321.275	410
321.504	425
321.733	434
321.962	426
322.191	429
322.42	449
322.649	459
322.878	470
323.108	471
323.337	536
323.566	549
323.795	587
324.024	633
324.253	751
324.482	1095
324.71	1679
324.939	2432
325.168	2112
325.397	1116
325.626	732
325.855	598
326.084	554
326.313	528
326.542	543
326.77	608
326.999	682
327.228	973
327.457	1525
327.686	1835
327.914	1224
328.143	830
328.372	679
328.6	639
328.829	595
329.058	600
329.287	636
329.515	592
329.744	547
329.972	509
330.201	539
330.43	571
330.658	593
330.887	664
331.115	636
331.344	549
331.572	530
331.801	534
332.03	504
332.258	477
332.486	475
332.715	451
332.943	470
333.172	470
333.4	463
333.629	458
333.857	474
334.085	478
334.314	480
334.542	499
334.771	496
334.999	499
335.227	457
335.455	457
335.684	456
335.912	450
336.14	464
336.369	449
336.597	466
336.825	459
337.053	468
337.281	439
337.51	441
337.738	451
337.966	432
338.194	444
338.422	459
338.65	453
338.878	449
339.106	413
339.334	462
339.562	438
339.79	442
340.018	434
340.246	429
340.474	452
340.702	457
340.93	424
341.158	443
341.386	429
341.614	442
341.842	436
342.07	442
342.298	435
342.526	443
342.754	410
342.981	422
343.209	417
343.437	410
343.665	433
343.893	443
344.12	450
344.348	471
344.576	423
344.804	433
345.031	444
345.259	452
345.487	441
345.714	438
345.942	434
346.17	433
346.397	414
346.625	437
346.853	417
347.08	423
347.308	435
347.535	447
347.763	438
347.99	420
348.218	426
348.445	444
348.673	448
348.9	427
349.128	418
349.355	397
349.583	410
349.81	405
350.037	402
350.265	420
350.492	408
350.72	410
350.947	435
351.174	434
351.402	418
351.629	433
351.856	414
352.083	417
352.311	441
352.538	454
352.765	438
352.992	436
353.22	425
353.447	406
353.674	410
353.901	390
354.128	403
354.355	402
354.583	382
354.81	387
355.037	396
355.264	388
355.491	397
355.718	375
355.945	384
356.172	381
356.399	378
356.626	384
356.853	375
357.08	380
357.307	387
357.534	383
357.761	383
357.988	371
358.215	386
358.441	386
358.668	403
358.895	394
359.122	391
359.349	414
359.576	425
359.802	450
360.029	471
360.256	479
360.483	446
360.709	422
360.936	434
361.163	399
361.39	440
361.616	410
361.843	422
362.07	422
362.296	432
362.523	410
362.749	404
362.976	405
363.203	380
363.429	389
363.656	396
363.882	398
364.109	390
364.335	387
364.562	380
364.788	394
365.015	388
365.241	416
365.468	396
365.694	402
365.92	398
366.147	375
366.373	395
366.599	393
366.826	386
367.052	391
367.278	380
367.505	404
367.731	389
367.957	394
368.184	390
368.41	394
368.636	412
368.862	390
369.089	384
369.315	386
369.541	393
369.767	382
369.993	377
370.219	393
370.445	405
370.672	386
370.898	392
371.124	393
371.35	375
371.576	374
371.802	379
372.028	388
372.254	375
372.48	374
372.706	372
372.932	380
373.158	390
373.384	378
373.61	382
373.835	388
374.061	374
374.287	379
374.513	377
374.739	391
374.965	380
375.191	384
375.416	375
375.642	381
375.868	397
376.094	384
376.319	388
376.545	376
376.771	375
376.997	377
377.222	374
377.448	388
377.674	379
377.899	375
378.125	374
378.35	382
378.576	373
378.802	368
379.027	361
379.253	380
379.478	368
379.704	378
379.929	392
380.155	397
380.38	382
380.606	394
380.831	396
381.057	364
381.282	368
381.507	364
381.733	364
381.958	385
382.184	386
382.409	393
382.634	389
382.86	393
383.085	385
383.31	398
383.535	379
383.761	379
383.986	385
384.211	389
384.436	376
384.662	392
384.887	387
385.112	378
385.337	411
385.562	400
385.787	380
386.013	406
386.238	396
386.463	426
386.688	421
386.913	414
387.138	388
387.363	413
387.588	391
387.813	401
388.038	388
388.263	397
388.488	406
388.713	404
388.938	394
389.163	424
389.387	413
389.612	394
389.837	404
390.062	394
390.287	392
390.512	405
390.736	394
390.961	390
391.186	412
391.411	410
391.636	394
391.86	404
392.085	406
392.31	406
392.534	419
392.759	421
392.984	407
393.208	412
393.433	396
393.658	389
393.882	398
394.107	412
394.331	393
394.556	408
394.78	398
395.005	384
395.229	384
395.454	413
395.678	402
395.903	441
396.127	457
396.352	448
396.576	423
396.801	417
397.025	408
397.249	400
397.474	427
397.698	422
397.922	423
398.147	449
398.371	459
398.595	441
398.82	438
399.044	438
399.268	451
399.492	483
399.717	522
399.941	532
400.165	555
400.389	571
400.613	522
400.837	460
401.062	454
401.286	459
401.51	462
401.734	437
401.958	449
402.182	444
402.406	451
402.63	463
402.854	452
403.078	439
403.302	478
403.526	490
403.75	462
403.974	449
404.198	464
404.422	469
404.645	459
404.869	459
405.093	512
405.317	518
405.541	556
405.765	522
405.988	480
406.212	502
406.436	512
406.66	547
406.883	518
407.107	519
407.331	572
407.555	613
407.778	630
408.002	568
408.226	526
408.449	525
408.673	502
408.896	528
409.12	613
409.344	546
409.567	491
409.791	491
410.014	471
410.238	446
410.461	461
410.685	476
410.908	480
411.132	522
411.355	558
411.578	544
411.802	481
412.025	454
412.249	460
412.472	477
412.695	501
412.919	491
413.142	466
413.365	447
413.589	474
413.812	448
414.035	450
414.258	435
414.482	410
414.705	445
414.928	449
415.151	421
415.374	412
415.597	438
415.821	416
416.044	429
416.267	442
416.49	437
416.713	421
416.936	422
417.159	456
417.382	456
417.605	444
417.828	437
418.051	468
418.274	474
418.497	457
418.72	451
418.943	448
419.166	449
419.389	481
419.611	469
419.834	474
420.057	461
420.28	462
420.503	448
420.726	441
420.948	479
421.171	527
421.394	570
421.617	493
421.839	457
422.062	471
422.285	466
422.507	531
422.73	610
422.953	582
423.175	514
423.398	485
423.621	469
423.843	506
424.066	516
424.288	504
424.511	508
424.733	578
424.956	681
425.178	630
425.401	634
425.623	648
425.846	559
426.068	532
426.291	508
426.513	505
426.735	521
426.958	550
427.18	621
427.402	758
427.625	848
427.847	727
428.069	632
428.292	576
428.514	540
428.736	501
428.958	466
429.181	468
429.403	441
429.625	478
429.847	498
430.069	561
430.292	579
430.514	488
430.736	467
430.958	481
431.18	465
431.402	440
431.624	438
431.846	438
432.068	430
432.29	427
432.512	460
432.734	459
432.956	442
433.178	453
433.4	463
433.622	457
433.844	435
434.066	438
434.287	441
434.509	416
434.731	451
434.953	461
435.175	444
435.397	512
435.618	512
435.84	552
436.062	634
436.284	718
436.505	598
436.727	520
436.949	484
437.17	451
437.392	469
437.614	481
437.835	518
438.057	586
438.278	729
438.5	702
438.721	777
438.943	737
439.165	604
439.386	572
439.608	540
439.829	520
440.05	552
440.272	592
440.493	562
440.715	522
440.936	483
441.158	485
441.379	474
441.6	472
441.822	506
442.043	568
442.264	652
442.486	670
442.707	580
442.928	514
443.149	542
443.371	548
443.592	589
443.813	691
444.034	747
444.255	602
444.476	534
444.698	520
444.919	521
445.14	582
445.361	568
445.582	576
445.803	621
446.024	701
446.245	767
446.466	645
446.687	571
446.908	500
447.129	499
447.35	477
447.571	496
447.792	454
448.013	461
448.234	499
448.455	539
448.675	654
448.896	774
449.117	663
449.338	614
449.559	712
449.779	819
450	644
450.221	539
450.442	465
450.662	490
450.883	452
451.104	476
451.324	486
451.545	461
451.766	424
451.986	436
452.207	424
452.428	438
452.648	421
452.869	414
453.089	426
453.31	447
453.53	434
453.751	428
453.971	399
454.192	461
454.412	429
454.633	423
454.853	417
455.073	409
455.294	429
455.514	516
455.734	505
455.955	430
456.175	414
456.395	376
456.616	405
456.836	390
457.056	394
457.276	384
457.497	384
457.717	389
457.937	407
458.157	394
458.377	404
458.598	440
458.818	470
459.038	596
459.258	609
459.478	501
459.698	452
459.918	422
460.138	411
460.358	432
460.578	448
460.798	432
461.018	432
461.238	438
461.458	453
461.678	432
461.898	454
462.118	426
462.338	416
462.558	434
462.777	419
462.997	452
463.217	459
463.437	456
463.657	453
463.876	452
464.096	445
464.316	457
464.536	458
464.755	462
464.975	478
465.195	509
465.414	597
465.634	536
465.854	474
466.073	437
466.293	409
466.512	406
466.732	421
466.951	416
467.171	415
467.391	428
467.61	434
467.829	426
468.049	435
468.268	425
468.488	434
468.707	415
468.927	411
469.146	430
469.365	410
469.585	423
469.804	420
470.023	438
470.243	419
470.462	436
470.681	443
470.901	437
471.12	451
471.339	419
471.558	435
471.777	419
471.997	437
472.216	416
472.435	450
472.654	440
472.873	431
473.092	425
473.311	425
473.53	421
473.749	448
473.968	484
474.187	583
474.406	600
474.625	482
474.844	444
475.063	416
475.282	446
475.501	443
475.72	436
475.939	449
476.158	439
476.377	456
476.596	447
476.814	445
477.033	447
477.252	457
477.471	474
477.69	451
477.908	462
478.127	468
478.346	461
478.564	451
478.783	472
479.002	470
479.22	474
479.439	499
479.658	481
479.876	501
480.095	525
480.313	562
480.532	525
480.751	519
480.969	543
481.188	554
481.406	565
481.624	531
481.843	518
482.061	505
482.28	505
482.498	500
482.717	506
482.935	491
483.153	492
483.372	525
483.59	507
483.808	502
484.027	506
484.245	512
484.463	510
484.681	520
484.9	492
485.118	503
485.336	520
485.554	518
485.772	540
485.99	540
486.209	517
486.427	536
486.645	536
486.863	548
487.081	562
487.299	545
487.517	550
487.735	547
487.953	531
488.171	506
488.389	550
488.607	556
488.825	566
489.043	571
489.261	540
489.479	537
489.696	548
489.914	556
490.132	577
490.35	578
490.568	588
490.786	569
491.003	589
491.221	603
491.439	601
491.657	589
491.874	602
492.092	613
492.31	624
492.527	630
492.745	608
492.963	633
493.18	630
493.398	637
493.615	629
493.833	625
494.05	633
494.268	658
494.485	649
494.703	654
494.92	670
495.138	633
495.355	653
495.573	650
495.79	634
496.008	630
496.225	638
496.442	648
496.66	634
496.877	637
497.094	647
497.312	632
497.529	663
497.746	661
497.963	665
498.181	706
498.398	714
498.615	698
498.832	713
499.049	696
499.267	737
499.484	741
499.701	760
499.918	782
500.135	796
500.352	828
500.569	824
500.786	850
501.003	813
501.22	792
501.437	797
501.654	782
501.871	808
502.088	768
502.305	739
502.522	709
502.739	690
502.956	663
503.172	676
503.389	677
503.606	664
503.823	686
504.04	661
504.256	672
504.473	648
504.69	669
504.907	647
505.123	660
505.34	636
505.557	635
505.773	642
505.99	637
506.207	615
506.423	628
506.64	624
506.856	630
507.073	620
507.289	617
507.506	604
507.722	645
507.939	638
508.155	619
508.372	600
508.588	603
508.805	595
509.021	627
509.238	616
509.454	628
509.67	614
509.887	612
510.103	630
510.319	616
510.536	698
510.752	1281
510.968	1012
511.184	629
511.401	608
511.617	566
511.833	564
512.049	579
512.265	561
512.481	553
512.698	565
512.914	574
513.13	564
513.346	540
513.562	564
513.778	560
513.994	584
514.21	593
514.426	615
514.642	669
514.858	678
515.074	741
515.29	901
515.506	1402
515.721	1131
515.937	741
516.153	660
516.369	626
516.585	610
516.801	588
517.016	576
517.232	547
517.448	595
517.664	602
517.879	557
518.095	569
518.311	586
518.527	574
518.742	547
518.958	571
519.173	529
519.389	579
519.605	584
519.82	569
520.036	588
520.251	628
520.467	650
520.682	634
520.898	638
521.113	669
521.329	721
521.544	821
521.76	1064
521.975	1850
522.19	1757
522.406	928
522.621	690
522.836	618
523.052	582
523.267	569
523.482	504
523.698	527
523.913	536
524.128	533
524.343	502
524.559	483
524.774	484
524.989	502
525.204	514
525.419	514
525.634	496
525.849	472
526.064	477
526.28	466
526.495	452
526.71	475
526.925	468
527.14	462
527.355	437
527.57	444
527.785	464
527.999	447
528.214	445
528.429	476
528.644	463
528.859	467
529.074	440
529.289	477
529.503	593
529.718	557
529.933	491
530.148	472
530.363	454
530.577	461
530.792	457
531.007	439
531.221	451
531.436	448
531.651	434
531.865	431
532.08	413
532.295	449
532.509	449
532.724	445
532.938	427
533.153	435
533.367	410
533.582	424
533.796	436
534.011	438
534.225	429
534.44	392
534.654	440
534.868	437
535.083	436
535.297	411
535.511	425
535.726	436
535.94	442
536.154	427
536.369	420
536.583	430
536.797	413
537.011	422
537.225	394
537.44	410
537.654	414
537.868	402
538.082	401
538.296	413
538.51	422
538.724	416
538.938	422
539.153	426
539.367	428
539.581	430
539.795	432
540.009	411
540.222	430
540.436	424
540.65	419
540.864	412
541.078	446
541.292	434
541.506	410
541.72	413
541.934	398
542.147	425
542.361	402
542.575	417
542.789	409
543.002	421
543.216	418
543.43	407
543.644	438
543.857	410
544.071	384
544.285	410
544.498	394
544.712	433
544.925	425
545.139	421
545.352	408
545.566	405
545.779	407
545.993	394
546.206	397
546.42	393
546.633	403
546.847	393
547.06	399
547.274	394
547.487	402
547.7	397
547.914	402
548.127	382
548.34	388
548.554	406
548.767	370
548.98	390
549.193	377
549.407	382
549.62	390
549.833	389
550.046	398
550.259	399
550.473	372
550.686	386
550.899	387
551.112	361
551.325	380
551.538	379
551.751	385
551.964	374
552.177	391
552.39	387
552.603	397
552.816	374
553.029	382
553.242	387
553.455	397
553.667	403
553.88	409
554.093	390
554.306	387
554.519	400
554.732	387
554.944	385
555.157	403
555.37	384
555.583	364
555.795	373
556.008	376
556.221	360
556.433	371
556.646	370
556.859	349
557.071	356
557.284	345
557.496	350
557.709	354
557.921	359
558.134	351
558.346	364
558.559	360
558.771	356
558.984	353
559.196	354
559.409	334
559.621	344
559.833	352
560.046	346
560.258	350
560.47	354
560.683	347
560.895	361
561.107	343
561.32	348
561.532	338
561.744	357
561.956	334
562.168	349
562.381	360
562.593	338
562.805	342
563.017	348
563.229	363
563.441	344
