Data from 1989.PennyLincolnUp.Lamp.En5.5.200Scan.071819.P2_HRD10591_17-26-18-974.txt Node
Date: Thu Jul 18 17:26:18 EDT 2019
User: cochatt
Spectrometer: HR+D1059
Trigger mode: 1
Integration Time (sec): 1.000000E-1
Scans to average: 1
Electric dark correction enabled: true
Nonlinearity correction enabled: false
Boxcar width: 0
XAxis mode: Wavelengths
Number of Pixels in Spectrum: 2048
>>>>>Begin Spectral Data<<<<<
223.165	-28.5
223.4	-28.5
223.635	-28.5
223.869	-18.5
224.104	-3.5
224.338	-12.5
224.573	-17.5
224.808	-15.5
225.042	-3.5
225.277	-3.5
225.511	8.5
225.746	-7.5
225.98	2.5
226.215	3.5
226.449	12.5
226.683	30.5
226.918	18.5
227.152	34.5
227.387	34.5
227.621	38.5
227.856	46.5
228.09	66.5
228.324	56.5
228.559	56.5
228.793	58.5
229.027	95.5
229.262	106.5
229.496	119.5
229.73	132.5
229.964	170.5
230.199	128.5
230.433	111.5
230.667	130.5
230.901	118.5
231.136	107.5
231.37	107.5
231.604	106.5
231.838	123.5
232.072	124.5
232.306	120.5
232.541	108.5
232.775	112.5
233.009	117.5
233.243	110.5
233.477	108.5
233.711	121.5
233.945	117.5
234.179	98.5
234.413	113.5
234.647	132.5
234.881	113.5
235.115	114.5
235.349	121.5
235.583	121.5
235.817	122.5
236.051	127.5
236.285	136.5
236.519	126.5
236.753	140.5
236.987	143.5
237.221	206.5
237.455	243.5
237.689	208.5
237.922	133.5
238.156	134.5
238.39	140.5
238.624	127.5
238.858	136.5
239.091	138.5
239.325	130.5
239.559	120.5
239.793	149.5
240.027	146.5
240.26	148.5
240.494	167.5
240.728	160.5
240.961	140.5
241.195	168.5
241.429	148.5
241.662	148.5
241.896	144.5
242.13	143.5
242.363	136.5
242.597	154.5
242.83	134.5
243.064	131.5
243.298	151.5
243.531	146.5
243.765	140.5
243.998	141.5
244.232	157.5
244.465	147.5
244.699	162.5
244.932	145.5
245.166	161.5
245.399	167.5
245.633	157.5
245.866	163.5
246.099	162.5
246.333	158.5
246.566	157.5
246.8	167.5
247.033	168.5
247.266	172.5
247.5	180.5
247.733	186.5
247.966	208.5
248.2	178.5
248.433	179.5
248.666	204.5
248.899	202.5
249.133	225.5
249.366	243.5
249.599	212.5
249.832	209.5
250.066	182.5
250.299	211.5
250.532	222.5
250.765	257.5
250.998	260.5
251.231	239.5
251.465	234.5
251.698	217.5
251.931	212.5
252.164	225.5
252.397	200.5
252.63	239.5
252.863	226.5
253.096	235.5
253.329	269.5
253.562	242.5
253.795	250.5
254.028	254.5
254.261	255.5
254.494	239.5
254.727	291.5
254.96	330.5
255.193	319.5
255.426	303.5
255.659	275.5
255.892	290.5
256.124	302.5
256.357	311.5
256.59	284.5
256.823	283.5
257.056	243.5
257.289	255.5
257.521	255.5
257.754	251.5
257.987	244.5
258.22	229.5
258.452	230.5
258.685	242.5
258.918	235.5
259.151	239.5
259.383	247.5
259.616	256.5
259.849	254.5
260.081	267.5
260.314	288.5
260.547	281.5
260.779	258.5
261.012	241.5
261.244	266.5
261.477	257.5
261.71	261.5
261.942	257.5
262.175	279.5
262.407	240.5
262.64	247.5
262.872	243.5
263.105	247.5
263.337	252.5
263.57	239.5
263.802	254.5
264.035	235.5
264.267	233.5
264.499	252.5
264.732	238.5
264.964	242.5
265.197	229.5
265.429	243.5
265.661	231.5
265.894	223.5
266.126	261.5
266.358	235.5
266.591	234.5
266.823	223.5
267.055	242.5
267.287	241.5
267.52	255.5
267.752	245.5
267.984	217.5
268.216	266.5
268.448	262.5
268.681	271.5
268.913	277.5
269.145	291.5
269.377	313.5
269.609	310.5
269.841	296.5
270.073	292.5
270.306	326.5
270.538	374.5
270.77	340.5
271.002	331.5
271.234	312.5
271.466	307.5
271.698	352.5
271.93	360.5
272.162	356.5
272.394	354.5
272.626	340.5
272.858	328.5
273.09	312.5
273.322	313.5
273.553	302.5
273.785	305.5
274.017	304.5
274.249	289.5
274.481	304.5
274.713	310.5
274.945	302.5
275.176	320.5
275.408	307.5
275.64	288.5
275.872	288.5
276.104	313.5
276.335	305.5
276.567	313.5
276.799	323.5
277.031	338.5
277.262	374.5
277.494	357.5
277.726	345.5
277.957	320.5
278.189	325.5
278.421	324.5
278.652	310.5
278.884	312.5
279.115	323.5
279.347	320.5
279.579	282.5
279.81	290.5
280.042	304.5
280.273	294.5
280.505	293.5
280.736	305.5
280.968	280.5
281.199	288.5
281.431	313.5
281.662	312.5
281.894	295.5
282.125	298.5
282.356	321.5
282.588	341.5
282.819	346.5
283.051	314.5
283.282	306.5
283.513	295.5
283.745	302.5
283.976	314.5
284.207	334.5
284.439	318.5
284.67	323.5
284.901	309.5
285.132	306.5
285.364	296.5
285.595	304.5
285.826	304.5
286.057	318.5
286.288	295.5
286.52	298.5
286.751	312.5
286.982	308.5
287.213	313.5
287.444	340.5
287.675	330.5
287.906	336.5
288.138	325.5
288.369	338.5
288.6	335.5
288.831	332.5
289.062	319.5
289.293	318.5
289.524	306.5
289.755	313.5
289.986	330.5
290.217	315.5
290.448	324.5
290.679	313.5
290.91	329.5
291.141	327.5
291.371	327.5
291.602	327.5
291.833	290.5
292.064	327.5
292.295	305.5
292.526	334.5
292.757	334.5
292.987	301.5
293.218	304.5
293.449	319.5
293.68	314.5
293.91	325.5
294.141	312.5
294.372	315.5
294.603	329.5
294.833	338.5
295.064	339.5
295.295	331.5
295.525	329.5
295.756	336.5
295.987	328.5
296.217	363.5
296.448	367.5
296.679	332.5
296.909	340.5
297.14	338.5
297.37	341.5
297.601	328.5
297.831	341.5
298.062	328.5
298.292	356.5
298.523	336.5
298.753	334.5
298.984	338.5
299.214	326.5
299.445	349.5
299.675	350.5
299.905	344.5
300.136	354.5
300.366	346.5
300.597	346.5
300.827	366.5
301.057	344.5
301.288	376.5
301.518	355.5
301.748	345.5
301.979	368.5
302.209	346.5
302.439	357.5
302.669	372.5
302.9	350.5
303.13	382.5
303.36	367.5
303.59	359.5
303.82	380.5
304.051	377.5
304.281	358.5
304.511	361.5
304.741	372.5
304.971	350.5
305.201	348.5
305.431	355.5
305.661	356.5
305.891	363.5
306.121	339.5
306.352	362.5
306.582	376.5
306.812	362.5
307.042	344.5
307.272	369.5
307.502	365.5
307.731	379.5
307.961	360.5
308.191	378.5
308.421	360.5
308.651	363.5
308.881	370.5
309.111	360.5
309.341	384.5
309.571	396.5
309.8	393.5
310.03	401.5
310.26	425.5
310.49	404.5
310.72	416.5
310.949	446.5
311.179	465.5
311.409	428.5
311.639	412.5
311.868	428.5
312.098	419.5
312.328	423.5
312.557	449.5
312.787	454.5
313.017	470.5
313.246	440.5
313.476	407.5
313.706	416.5
313.935	442.5
314.165	452.5
314.394	458.5
314.624	456.5
314.853	430.5
315.083	432.5
315.312	424.5
315.542	415.5
315.771	411.5
316.001	439.5
316.23	413.5
316.46	407.5
316.689	427.5
316.919	428.5
317.148	424.5
317.377	450.5
317.607	436.5
317.836	445.5
318.065	404.5
318.295	416.5
318.524	391.5
318.753	432.5
318.983	427.5
319.212	420.5
319.441	422.5
319.67	455.5
319.9	425.5
320.129	455.5
320.358	427.5
320.587	442.5
320.816	442.5
321.046	440.5
321.275	449.5
321.504	427.5
321.733	458.5
321.962	465.5
322.191	463.5
322.42	484.5
322.649	507.5
322.878	524.5
323.108	511.5
323.337	563.5
323.566	580.5
323.795	607.5
324.024	670.5
324.253	833.5
324.482	1195.5
324.71	1835.5
324.939	2637.5
325.168	2256.5
325.397	1182.5
325.626	807.5
325.855	636.5
326.084	598.5
326.313	549.5
326.542	600.5
326.77	663.5
326.999	792.5
327.228	1072.5
327.457	1637.5
327.686	1958.5
327.914	1312.5
328.143	881.5
328.372	778.5
328.6	697.5
328.829	662.5
329.058	686.5
329.287	703.5
329.515	647.5
329.744	614.5
329.972	614.5
330.201	676.5
330.43	732.5
330.658	751.5
330.887	724.5
331.115	707.5
331.344	615.5
331.572	574.5
331.801	562.5
332.03	570.5
332.258	535.5
332.486	496.5
332.715	500.5
332.943	533.5
333.172	519.5
333.4	523.5
333.629	546.5
333.857	558.5
334.085	589.5
334.314	614.5
334.542	679.5
334.771	728.5
334.999	627.5
335.227	552.5
335.455	534.5
335.684	513.5
335.912	487.5
336.14	513.5
336.369	487.5
336.597	484.5
336.825	494.5
337.053	491.5
337.281	477.5
337.51	499.5
337.738	478.5
337.966	483.5
338.194	498.5
338.422	481.5
338.65	470.5
338.878	457.5
339.106	462.5
339.334	475.5
339.562	459.5
339.79	455.5
340.018	466.5
340.246	475.5
340.474	469.5
340.702	462.5
340.93	460.5
341.158	471.5
341.386	470.5
341.614	477.5
341.842	473.5
342.07	466.5
342.298	456.5
342.526	449.5
342.754	442.5
342.981	431.5
343.209	446.5
343.437	460.5
343.665	457.5
343.893	456.5
344.12	442.5
344.348	456.5
344.576	466.5
344.804	499.5
345.031	490.5
345.259	497.5
345.487	487.5
345.714	472.5
345.942	472.5
346.17	446.5
346.397	459.5
346.625	452.5
346.853	437.5
347.08	437.5
347.308	450.5
347.535	461.5
347.763	476.5
347.99	463.5
348.218	467.5
348.445	467.5
348.673	447.5
348.9	451.5
349.128	441.5
349.355	474.5
349.583	439.5
349.81	417.5
350.037	425.5
350.265	426.5
350.492	423.5
350.72	430.5
350.947	438.5
351.174	439.5
351.402	458.5
351.629	453.5
351.856	463.5
352.083	464.5
352.311	468.5
352.538	461.5
352.765	474.5
352.992	469.5
353.22	453.5
353.447	447.5
353.674	432.5
353.901	444.5
354.128	412.5
354.355	403.5
354.583	427.5
354.81	415.5
355.037	430.5
355.264	410.5
355.491	416.5
355.718	408.5
355.945	401.5
356.172	384.5
356.399	405.5
356.626	396.5
356.853	412.5
357.08	423.5
357.307	412.5
357.534	404.5
357.761	406.5
357.988	412.5
358.215	411.5
358.441	410.5
358.668	401.5
358.895	415.5
359.122	406.5
359.349	419.5
359.576	436.5
359.802	470.5
360.029	507.5
360.256	504.5
360.483	507.5
360.709	457.5
360.936	436.5
361.163	434.5
361.39	443.5
361.616	431.5
361.843	437.5
362.07	420.5
362.296	427.5
362.523	447.5
362.749	438.5
362.976	450.5
363.203	418.5
363.429	428.5
363.656	426.5
363.882	416.5
364.109	434.5
364.335	420.5
364.562	401.5
364.788	424.5
365.015	418.5
365.241	389.5
365.468	424.5
365.694	428.5
365.92	428.5
366.147	431.5
366.373	423.5
366.599	409.5
366.826	412.5
367.052	405.5
367.278	411.5
367.505	418.5
367.731	388.5
367.957	399.5
368.184	418.5
368.41	410.5
368.636	434.5
368.862	404.5
369.089	416.5
369.315	416.5
369.541	396.5
369.767	393.5
369.993	423.5
370.219	417.5
370.445	422.5
370.672	404.5
370.898	397.5
371.124	397.5
371.35	411.5
371.576	397.5
371.802	400.5
372.028	386.5
372.254	423.5
372.48	404.5
372.706	420.5
372.932	389.5
373.158	418.5
373.384	404.5
373.61	410.5
373.835	412.5
374.061	392.5
374.287	417.5
374.513	406.5
374.739	390.5
374.965	411.5
375.191	402.5
375.416	406.5
375.642	406.5
375.868	393.5
376.094	421.5
376.319	394.5
376.545	425.5
376.771	397.5
376.997	381.5
377.222	399.5
377.448	402.5
377.674	382.5
377.899	380.5
378.125	412.5
378.35	383.5
378.576	422.5
378.802	385.5
379.027	408.5
379.253	395.5
379.478	389.5
379.704	390.5
379.929	404.5
380.155	388.5
380.38	419.5
380.606	390.5
380.831	400.5
381.057	409.5
381.282	392.5
381.507	384.5
381.733	387.5
381.958	411.5
382.184	415.5
382.409	393.5
382.634	388.5
382.86	404.5
383.085	404.5
383.31	412.5
383.535	408.5
383.761	415.5
383.986	396.5
384.211	418.5
384.436	390.5
384.662	433.5
384.887	406.5
385.112	415.5
385.337	424.5
385.562	411.5
385.787	425.5
386.013	442.5
386.238	438.5
386.463	430.5
386.688	437.5
386.913	423.5
387.138	420.5
387.363	412.5
387.588	433.5
387.813	426.5
388.038	440.5
388.263	422.5
388.488	416.5
388.713	446.5
388.938	419.5
389.163	432.5
389.387	447.5
389.612	411.5
389.837	414.5
390.062	418.5
390.287	422.5
390.512	436.5
390.736	408.5
390.961	408.5
391.186	412.5
391.411	428.5
391.636	427.5
391.86	426.5
392.085	419.5
392.31	413.5
392.534	418.5
392.759	447.5
392.984	427.5
393.208	435.5
393.433	422.5
393.658	409.5
393.882	431.5
394.107	430.5
394.331	436.5
394.556	423.5
394.78	427.5
395.005	411.5
395.229	412.5
395.454	440.5
395.678	445.5
395.903	440.5
396.127	466.5
396.352	474.5
396.576	467.5
396.801	436.5
397.025	466.5
397.249	440.5
397.474	431.5
397.698	448.5
397.922	460.5
398.147	462.5
398.371	482.5
398.595	470.5
398.82	441.5
399.044	458.5
399.268	479.5
399.492	499.5
399.717	542.5
399.941	553.5
400.165	589.5
400.389	579.5
400.613	551.5
400.837	514.5
401.062	504.5
401.286	487.5
401.51	477.5
401.734	475.5
401.958	473.5
402.182	489.5
402.406	482.5
402.63	472.5
402.854	453.5
403.078	478.5
403.302	491.5
403.526	501.5
403.75	512.5
403.974	483.5
404.198	506.5
404.422	511.5
404.645	506.5
404.869	530.5
405.093	553.5
405.317	616.5
405.541	637.5
405.765	582.5
405.988	543.5
406.212	540.5
406.436	577.5
406.66	562.5
406.883	551.5
407.107	581.5
407.331	611.5
407.555	688.5
407.778	664.5
408.002	623.5
408.226	535.5
408.449	546.5
408.673	535.5
408.896	565.5
409.12	616.5
409.344	562.5
409.567	536.5
409.791	499.5
410.014	510.5
410.238	494.5
410.461	493.5
410.685	522.5
410.908	516.5
411.132	547.5
411.355	587.5
411.578	552.5
411.802	539.5
412.025	498.5
412.249	507.5
412.472	546.5
412.695	606.5
412.919	587.5
413.142	531.5
413.365	536.5
413.589	502.5
413.812	476.5
414.035	481.5
414.258	461.5
414.482	487.5
414.705	459.5
414.928	471.5
415.151	481.5
415.374	452.5
415.597	452.5
415.821	451.5
416.044	477.5
416.267	480.5
416.49	471.5
416.713	454.5
416.936	458.5
417.159	452.5
417.382	464.5
417.605	483.5
417.828	496.5
418.051	497.5
418.274	507.5
418.497	484.5
418.72	471.5
418.943	480.5
419.166	461.5
419.389	525.5
419.611	508.5
419.834	505.5
420.057	519.5
420.28	512.5
420.503	514.5
420.726	502.5
420.948	522.5
421.171	559.5
421.394	588.5
421.617	528.5
421.839	494.5
422.062	490.5
422.285	507.5
422.507	565.5
422.73	631.5
422.953	638.5
423.175	548.5
423.398	499.5
423.621	504.5
423.843	535.5
424.066	545.5
424.288	530.5
424.511	564.5
424.733	612.5
424.956	693.5
425.178	667.5
425.401	653.5
425.623	694.5
425.846	588.5
426.068	530.5
426.291	542.5
426.513	545.5
426.735	561.5
426.958	597.5
427.18	665.5
427.402	806.5
427.625	900.5
427.847	808.5
428.069	724.5
428.292	637.5
428.514	543.5
428.736	528.5
428.958	517.5
429.181	501.5
429.403	491.5
429.625	526.5
429.847	542.5
430.069	592.5
430.292	591.5
430.514	518.5
430.736	492.5
430.958	480.5
431.18	459.5
431.402	478.5
431.624	472.5
431.846	457.5
432.068	467.5
432.29	457.5
432.512	456.5
432.734	462.5
432.956	480.5
433.178	454.5
433.4	491.5
433.622	488.5
433.844	462.5
434.066	459.5
434.287	464.5
434.509	454.5
434.731	470.5
434.953	493.5
435.175	485.5
435.397	520.5
435.618	526.5
435.84	603.5
436.062	670.5
436.284	728.5
436.505	640.5
436.727	535.5
436.949	499.5
437.17	523.5
437.392	490.5
437.614	546.5
437.835	546.5
438.057	666.5
438.278	751.5
438.5	741.5
438.721	798.5
438.943	788.5
439.165	641.5
439.386	562.5
439.608	564.5
439.829	567.5
440.05	592.5
440.272	643.5
440.493	578.5
440.715	553.5
440.936	512.5
441.158	510.5
441.379	499.5
441.6	527.5
441.822	558.5
442.043	569.5
442.264	661.5
442.486	695.5
442.707	586.5
442.928	560.5
443.149	574.5
443.371	579.5
443.592	636.5
443.813	728.5
444.034	774.5
444.255	649.5
444.476	575.5
444.698	556.5
444.919	535.5
445.14	664.5
445.361	604.5
445.582	582.5
445.803	658.5
446.024	750.5
446.245	775.5
446.466	681.5
446.687	607.5
446.908	533.5
447.129	500.5
447.35	495.5
447.571	495.5
447.792	495.5
448.013	511.5
448.234	538.5
448.455	566.5
448.675	675.5
448.896	808.5
449.117	678.5
449.338	643.5
449.559	750.5
449.779	850.5
450	695.5
450.221	586.5
450.442	525.5
450.662	510.5
450.883	494.5
451.104	508.5
451.324	499.5
451.545	471.5
451.766	454.5
451.986	455.5
452.207	423.5
452.428	441.5
452.648	454.5
452.869	446.5
453.089	462.5
453.31	479.5
453.53	433.5
453.751	438.5
453.971	458.5
454.192	460.5
454.412	489.5
454.633	454.5
454.853	428.5
455.073	455.5
455.294	479.5
455.514	579.5
455.734	543.5
455.955	458.5
456.175	448.5
456.395	423.5
456.616	422.5
456.836	419.5
457.056	410.5
457.276	405.5
457.497	424.5
457.717	414.5
457.937	418.5
458.157	432.5
458.377	433.5
458.598	445.5
458.818	537.5
459.038	605.5
459.258	629.5
459.478	521.5
459.698	478.5
459.918	459.5
460.138	463.5
460.358	467.5
460.578	447.5
460.798	444.5
461.018	489.5
461.238	458.5
461.458	463.5
461.678	446.5
461.898	460.5
462.118	466.5
462.338	470.5
462.558	474.5
462.777	469.5
462.997	479.5
463.217	492.5
463.437	511.5
463.657	475.5
463.876	461.5
464.096	487.5
464.316	477.5
464.536	490.5
464.755	479.5
464.975	496.5
465.195	558.5
465.414	614.5
465.634	542.5
465.854	499.5
466.073	465.5
466.293	469.5
466.512	464.5
466.732	452.5
466.951	437.5
467.171	452.5
467.391	428.5
467.61	452.5
467.829	440.5
468.049	451.5
468.268	469.5
468.488	464.5
468.707	447.5
468.927	409.5
469.146	440.5
469.365	434.5
469.585	427.5
469.804	460.5
470.023	463.5
470.243	463.5
470.462	461.5
470.681	480.5
470.901	465.5
471.12	467.5
471.339	446.5
471.558	463.5
471.777	463.5
471.997	463.5
472.216	481.5
472.435	527.5
472.654	514.5
472.873	474.5
473.092	453.5
473.311	479.5
473.53	464.5
473.749	464.5
473.968	497.5
474.187	630.5
474.406	656.5
474.625	516.5
474.844	492.5
475.063	466.5
475.282	448.5
475.501	466.5
475.72	470.5
475.939	466.5
476.158	481.5
476.377	480.5
476.596	456.5
476.814	496.5
477.033	498.5
477.252	502.5
477.471	478.5
477.69	453.5
477.908	480.5
478.127	507.5
478.346	498.5
478.564	511.5
478.783	514.5
479.002	510.5
479.22	519.5
479.439	538.5
479.658	541.5
479.876	536.5
480.095	551.5
480.313	585.5
480.532	577.5
480.751	559.5
480.969	586.5
481.188	710.5
481.406	805.5
481.624	647.5
481.843	589.5
482.061	585.5
482.28	566.5
482.498	544.5
482.717	538.5
482.935	542.5
483.153	535.5
483.372	546.5
483.59	532.5
483.808	534.5
484.027	512.5
484.245	530.5
484.463	543.5
484.681	560.5
484.9	545.5
485.118	554.5
485.336	549.5
485.554	570.5
485.772	558.5
485.99	550.5
486.209	564.5
486.427	553.5
486.645	574.5
486.863	578.5
487.081	596.5
487.299	587.5
487.517	577.5
487.735	564.5
487.953	566.5
488.171	594.5
488.389	555.5
488.607	587.5
488.825	583.5
489.043	568.5
489.261	588.5
489.479	598.5
489.696	600.5
489.914	595.5
490.132	623.5
490.35	629.5
490.568	608.5
490.786	622.5
491.003	639.5
491.221	637.5
491.439	674.5
491.657	659.5
491.874	668.5
492.092	684.5
492.31	703.5
492.527	698.5
492.745	690.5
492.963	693.5
493.18	682.5
493.398	686.5
493.615	691.5
493.833	692.5
494.05	710.5
494.268	706.5
494.485	698.5
494.703	678.5
494.92	678.5
495.138	698.5
495.355	704.5
495.573	654.5
495.79	683.5
496.008	673.5
496.225	689.5
496.442	696.5
496.66	702.5
496.877	705.5
497.094	721.5
497.312	706.5
497.529	703.5
497.746	722.5
497.963	706.5
498.181	757.5
498.398	698.5
498.615	751.5
498.832	757.5
499.049	751.5
499.267	766.5
499.484	779.5
499.701	810.5
499.918	827.5
500.135	866.5
500.352	853.5
500.569	894.5
500.786	884.5
501.003	892.5
501.22	870.5
501.437	859.5
501.654	834.5
501.871	844.5
502.088	817.5
502.305	754.5
502.522	747.5
502.739	743.5
502.956	727.5
503.172	713.5
503.389	713.5
503.606	703.5
503.823	698.5
504.04	699.5
504.256	682.5
504.473	669.5
504.69	675.5
504.907	666.5
505.123	660.5
505.34	683.5
505.557	683.5
505.773	672.5
505.99	643.5
506.207	638.5
506.423	676.5
506.64	650.5
506.856	632.5
507.073	658.5
507.289	659.5
507.506	643.5
507.722	666.5
507.939	677.5
508.155	632.5
508.372	641.5
508.588	628.5
508.805	632.5
509.021	632.5
509.238	642.5
509.454	638.5
509.67	636.5
509.887	638.5
510.103	630.5
510.319	643.5
510.536	772.5
510.752	1284.5
510.968	1027.5
511.184	676.5
511.401	642.5
511.617	613.5
511.833	617.5
512.049	608.5
512.265	609.5
512.481	642.5
512.698	608.5
512.914	586.5
513.13	584.5
513.346	580.5
513.562	587.5
513.778	600.5
513.994	617.5
514.21	630.5
514.426	638.5
514.642	682.5
514.858	699.5
515.074	742.5
515.29	918.5
515.506	1374.5
515.721	1115.5
515.937	754.5
516.153	654.5
516.369	642.5
516.585	636.5
516.801	606.5
517.016	602.5
517.232	622.5
517.448	612.5
517.664	595.5
517.879	613.5
518.095	600.5
518.311	590.5
518.527	604.5
518.742	569.5
518.958	570.5
519.173	572.5
519.389	610.5
519.605	563.5
519.82	594.5
