Data from 1989.PennyLincolnUp.Lamp.En5.5.200Scan.071819.P2_HRD10591_17-25-30-973.txt Node
Date: Thu Jul 18 17:25:30 EDT 2019
User: cochatt
Spectrometer: HR+D1059
Trigger mode: 1
Integration Time (sec): 1.000000E-1
Scans to average: 1
Electric dark correction enabled: true
Nonlinearity correction enabled: false
Boxcar width: 0
XAxis mode: Wavelengths
Number of Pixels in Spectrum: 2048
>>>>>Begin Spectral Data<<<<<
223.165	-17.12
223.4	-17.12
223.635	-17.12
223.869	-13.12
224.104	-24.12
224.338	-5.12
224.573	-18.12
224.808	-14.12
225.042	0.88
225.277	-8.12
225.511	-10.12
225.746	19.88
225.98	3.88
226.215	13.88
226.449	6.88
226.683	14.88
226.918	21.88
227.152	27.88
227.387	44.88
227.621	37.88
227.856	44.88
228.09	32.88
228.324	54.88
228.559	64.88
228.793	54.88
229.027	91.88
229.262	121.88
229.496	139.88
229.73	150.88
229.964	157.88
230.199	137.88
230.433	116.88
230.667	102.88
230.901	113.88
231.136	122.88
231.37	119.88
231.604	113.88
231.838	118.88
232.072	117.88
232.306	124.88
232.541	111.88
232.775	127.88
233.009	119.88
233.243	111.88
233.477	125.88
233.711	122.88
233.945	109.88
234.179	115.88
234.413	132.88
234.647	101.88
234.881	129.88
235.115	119.88
235.349	128.88
235.583	128.88
235.817	127.88
236.051	125.88
236.285	128.88
236.519	128.88
236.753	141.88
236.987	155.88
237.221	196.88
237.455	255.88
237.689	201.88
237.922	153.88
238.156	134.88
238.39	137.88
238.624	120.88
238.858	137.88
239.091	132.88
239.325	121.88
239.559	120.88
239.793	157.88
240.027	137.88
240.26	153.88
240.494	169.88
240.728	156.88
240.961	160.88
241.195	140.88
241.429	155.88
241.662	148.88
241.896	136.88
242.13	142.88
242.363	133.88
242.597	124.88
242.83	148.88
243.064	143.88
243.298	146.88
243.531	155.88
243.765	142.88
243.998	165.88
244.232	172.88
244.465	161.88
244.699	160.88
244.932	152.88
245.166	152.88
245.399	158.88
245.633	162.88
245.866	152.88
246.099	160.88
246.333	161.88
246.566	156.88
246.8	168.88
247.033	172.88
247.266	153.88
247.5	179.88
247.733	173.88
247.966	188.88
248.2	193.88
248.433	190.88
248.666	188.88
248.899	205.88
249.133	217.88
249.366	222.88
249.599	233.88
249.832	200.88
250.066	185.88
250.299	196.88
250.532	210.88
250.765	235.88
250.998	250.88
251.231	244.88
251.465	238.88
251.698	227.88
251.931	229.88
252.164	225.88
252.397	209.88
252.63	218.88
252.863	225.88
253.096	232.88
253.329	275.88
253.562	262.88
253.795	248.88
254.028	236.88
254.261	235.88
254.494	256.88
254.727	276.88
254.96	318.88
255.193	295.88
255.426	294.88
255.659	278.88
255.892	280.88
256.124	268.88
256.357	282.88
256.59	249.88
256.823	244.88
257.056	243.88
257.289	256.88
257.521	245.88
257.754	229.88
257.987	222.88
258.22	233.88
258.452	250.88
258.685	192.88
258.918	220.88
259.151	240.88
259.383	264.88
259.616	256.88
259.849	248.88
260.081	264.88
260.314	283.88
260.547	299.88
260.779	271.88
261.012	256.88
261.244	267.88
261.477	231.88
261.71	245.88
261.942	259.88
262.175	278.88
262.407	246.88
262.64	243.88
262.872	231.88
263.105	232.88
263.337	234.88
263.57	230.88
263.802	242.88
264.035	227.88
264.267	228.88
264.499	238.88
264.732	230.88
264.964	226.88
265.197	214.88
265.429	238.88
265.661	227.88
265.894	241.88
266.126	231.88
266.358	250.88
266.591	240.88
266.823	242.88
267.055	273.88
267.287	256.88
267.52	253.88
267.752	254.88
267.984	245.88
268.216	244.88
268.448	258.88
268.681	262.88
268.913	265.88
269.145	292.88
269.377	297.88
269.609	310.88
269.841	301.88
270.073	298.88
270.306	318.88
270.538	373.88
270.77	348.88
271.002	331.88
271.234	324.88
271.466	325.88
271.698	370.88
271.93	344.88
272.162	360.88
272.394	358.88
272.626	344.88
272.858	312.88
273.09	307.88
273.322	316.88
273.553	309.88
273.785	323.88
274.017	295.88
274.249	286.88
274.481	290.88
274.713	292.88
274.945	305.88
275.176	290.88
275.408	306.88
275.64	291.88
275.872	292.88
276.104	298.88
276.335	302.88
276.567	290.88
276.799	334.88
277.031	330.88
277.262	342.88
277.494	363.88
277.726	353.88
277.957	322.88
278.189	311.88
278.421	300.88
278.652	305.88
278.884	291.88
279.115	293.88
279.347	291.88
279.579	291.88
279.81	293.88
280.042	296.88
280.273	310.88
280.505	308.88
280.736	280.88
280.968	317.88
281.199	291.88
281.431	285.88
281.662	282.88
281.894	305.88
282.125	298.88
282.356	313.88
282.588	337.88
282.819	338.88
283.051	319.88
283.282	294.88
283.513	293.88
283.745	294.88
283.976	309.88
284.207	333.88
284.439	311.88
284.67	308.88
284.901	294.88
285.132	299.88
285.364	306.88
285.595	309.88
285.826	307.88
286.057	305.88
286.288	293.88
286.52	305.88
286.751	292.88
286.982	288.88
287.213	293.88
287.444	327.88
287.675	317.88
287.906	317.88
288.138	315.88
288.369	326.88
288.6	322.88
288.831	331.88
289.062	320.88
289.293	315.88
289.524	320.88
289.755	320.88
289.986	322.88
290.217	320.88
290.448	314.88
290.679	284.88
290.91	306.88
291.141	318.88
291.371	309.88
291.602	317.88
291.833	305.88
292.064	313.88
292.295	310.88
292.526	318.88
292.757	280.88
292.987	322.88
293.218	306.88
293.449	285.88
293.68	314.88
293.91	332.88
294.141	296.88
294.372	322.88
294.603	314.88
294.833	330.88
295.064	308.88
295.295	310.88
295.525	315.88
295.756	337.88
295.987	333.88
296.217	341.88
296.448	362.88
296.679	348.88
296.909	308.88
297.14	310.88
297.37	310.88
297.601	332.88
297.831	313.88
298.062	325.88
298.292	312.88
298.523	341.88
298.753	310.88
298.984	337.88
299.214	337.88
299.445	326.88
299.675	340.88
299.905	328.88
300.136	320.88
300.366	330.88
300.597	337.88
300.827	341.88
301.057	337.88
301.288	347.88
301.518	355.88
301.748	360.88
301.979	356.88
302.209	337.88
302.439	374.88
302.669	349.88
302.9	354.88
303.13	344.88
303.36	344.88
303.59	360.88
303.82	389.88
304.051	364.88
304.281	372.88
304.511	347.88
304.741	341.88
304.971	348.88
305.201	366.88
305.431	362.88
305.661	335.88
305.891	380.88
306.121	350.88
306.352	354.88
306.582	361.88
306.812	350.88
307.042	347.88
307.272	377.88
307.502	363.88
307.731	357.88
307.961	359.88
308.191	364.88
308.421	376.88
308.651	368.88
308.881	375.88
309.111	373.88
309.341	356.88
309.571	382.88
309.8	409.88
310.03	412.88
310.26	396.88
310.49	408.88
310.72	433.88
310.949	422.88
311.179	445.88
311.409	432.88
311.639	423.88
311.868	423.88
312.098	413.88
312.328	421.88
312.557	452.88
312.787	461.88
313.017	459.88
313.246	422.88
313.476	406.88
313.706	418.88
313.935	398.88
314.165	443.88
314.394	454.88
314.624	428.88
314.853	431.88
315.083	410.88
315.312	437.88
315.542	397.88
315.771	408.88
316.001	395.88
316.23	402.88
316.46	420.88
316.689	403.88
316.919	413.88
317.148	424.88
317.377	426.88
317.607	421.88
317.836	422.88
318.065	422.88
318.295	401.88
318.524	420.88
318.753	399.88
318.983	407.88
319.212	419.88
319.441	414.88
319.67	420.88
319.9	412.88
320.129	416.88
320.358	408.88
320.587	424.88
320.816	440.88
321.046	442.88
321.275	408.88
321.504	435.88
321.733	442.88
321.962	457.88
322.191	444.88
322.42	476.88
322.649	492.88
322.878	519.88
323.108	522.88
323.337	536.88
323.566	557.88
323.795	606.88
324.024	662.88
324.253	820.88
324.482	1162.88
324.71	1820.88
324.939	2600.88
325.168	2264.88
325.397	1172.88
325.626	792.88
325.855	645.88
326.084	583.88
326.313	556.88
326.542	587.88
326.77	643.88
326.999	755.88
327.228	1068.88
327.457	1619.88
327.686	1968.88
327.914	1298.88
328.143	844.88
328.372	743.88
328.6	703.88
328.829	643.88
329.058	629.88
329.287	648.88
329.515	625.88
329.744	581.88
329.972	597.88
330.201	619.88
330.43	672.88
330.658	688.88
330.887	688.88
331.115	688.88
331.344	608.88
331.572	534.88
331.801	549.88
332.03	521.88
332.258	537.88
332.486	497.88
332.715	493.88
332.943	462.88
333.172	481.88
333.4	488.88
333.629	503.88
333.857	530.88
334.085	530.88
334.314	552.88
334.542	567.88
334.771	593.88
334.999	553.88
335.227	521.88
335.455	511.88
335.684	496.88
335.912	471.88
336.14	471.88
336.369	468.88
336.597	467.88
336.825	517.88
337.053	474.88
337.281	476.88
337.51	453.88
337.738	471.88
337.966	468.88
338.194	465.88
338.422	458.88
338.65	466.88
338.878	452.88
339.106	453.88
339.334	452.88
339.562	439.88
339.79	448.88
340.018	438.88
340.246	466.88
340.474	470.88
340.702	457.88
340.93	473.88
341.158	431.88
341.386	449.88
341.614	439.88
341.842	462.88
342.07	442.88
342.298	456.88
342.526	441.88
342.754	443.88
342.981	420.88
343.209	430.88
343.437	428.88
343.665	472.88
343.893	475.88
344.12	441.88
344.348	478.88
344.576	468.88
344.804	456.88
345.031	473.88
345.259	471.88
345.487	467.88
345.714	455.88
345.942	453.88
346.17	437.88
346.397	470.88
346.625	458.88
346.853	452.88
347.08	445.88
347.308	450.88
347.535	452.88
347.763	444.88
347.99	453.88
348.218	442.88
348.445	444.88
348.673	447.88
348.9	442.88
349.128	439.88
349.355	423.88
349.583	424.88
349.81	416.88
350.037	421.88
350.265	410.88
350.492	433.88
350.72	426.88
350.947	436.88
351.174	448.88
351.402	449.88
351.629	459.88
351.856	454.88
352.083	459.88
352.311	448.88
352.538	461.88
352.765	457.88
352.992	456.88
353.22	432.88
353.447	422.88
353.674	412.88
353.901	413.88
354.128	420.88
354.355	397.88
354.583	416.88
354.81	395.88
355.037	388.88
355.264	393.88
355.491	385.88
355.718	399.88
355.945	403.88
356.172	396.88
356.399	384.88
356.626	394.88
356.853	405.88
357.08	414.88
357.307	401.88
357.534	392.88
357.761	394.88
357.988	374.88
358.215	402.88
358.441	396.88
358.668	390.88
358.895	415.88
359.122	404.88
359.349	413.88
359.576	430.88
359.802	472.88
360.029	466.88
360.256	481.88
360.483	468.88
360.709	447.88
360.936	438.88
361.163	429.88
361.39	416.88
361.616	423.88
361.843	452.88
362.07	425.88
362.296	412.88
362.523	415.88
362.749	428.88
362.976	430.88
363.203	419.88
363.429	398.88
363.656	421.88
363.882	397.88
364.109	425.88
364.335	403.88
364.562	412.88
364.788	412.88
365.015	407.88
365.241	407.88
365.468	410.88
365.694	426.88
365.92	418.88
366.147	418.88
366.373	384.88
366.599	403.88
366.826	396.88
367.052	409.88
367.278	408.88
367.505	403.88
367.731	396.88
367.957	397.88
368.184	416.88
368.41	412.88
368.636	411.88
368.862	423.88
369.089	412.88
369.315	396.88
369.541	391.88
369.767	388.88
369.993	401.88
370.219	406.88
370.445	407.88
370.672	397.88
370.898	408.88
371.124	396.88
371.35	384.88
371.576	398.88
371.802	392.88
372.028	374.88
372.254	396.88
372.48	395.88
372.706	389.88
372.932	386.88
373.158	387.88
373.384	401.88
373.61	402.88
373.835	399.88
374.061	401.88
374.287	419.88
374.513	390.88
374.739	417.88
374.965	420.88
375.191	403.88
375.416	404.88
375.642	395.88
375.868	403.88
376.094	392.88
376.319	414.88
376.545	406.88
376.771	390.88
376.997	381.88
377.222	389.88
377.448	380.88
377.674	393.88
377.899	380.88
378.125	384.88
378.35	365.88
378.576	384.88
378.802	372.88
379.027	384.88
379.253	391.88
379.478	380.88
379.704	388.88
379.929	369.88
380.155	381.88
380.38	403.88
380.606	406.88
380.831	393.88
381.057	394.88
381.282	387.88
381.507	385.88
381.733	400.88
381.958	380.88
382.184	398.88
382.409	398.88
382.634	392.88
382.86	409.88
383.085	411.88
383.31	397.88
383.535	409.88
383.761	392.88
383.986	396.88
384.211	409.88
384.436	416.88
384.662	415.88
384.887	403.88
385.112	387.88
385.337	406.88
385.562	402.88
385.787	402.88
386.013	433.88
386.238	413.88
386.463	429.88
386.688	418.88
386.913	417.88
387.138	421.88
387.363	413.88
387.588	422.88
387.813	402.88
388.038	397.88
388.263	404.88
388.488	415.88
388.713	413.88
388.938	405.88
389.163	426.88
389.387	424.88
389.612	414.88
389.837	414.88
390.062	396.88
390.287	405.88
390.512	409.88
390.736	424.88
390.961	401.88
391.186	417.88
391.411	418.88
391.636	430.88
391.86	425.88
392.085	415.88
392.31	424.88
392.534	420.88
392.759	430.88
392.984	410.88
393.208	411.88
393.433	418.88
393.658	396.88
393.882	412.88
394.107	414.88
394.331	407.88
394.556	402.88
394.78	402.88
395.005	408.88
395.229	401.88
395.454	414.88
395.678	432.88
395.903	436.88
396.127	446.88
396.352	473.88
396.576	434.88
396.801	444.88
397.025	414.88
397.249	416.88
397.474	441.88
397.698	442.88
397.922	457.88
398.147	455.88
398.371	466.88
398.595	451.88
398.82	461.88
399.044	477.88
399.268	466.88
399.492	522.88
399.717	515.88
399.941	550.88
400.165	586.88
400.389	592.88
400.613	520.88
400.837	501.88
401.062	459.88
401.286	473.88
401.51	471.88
401.734	470.88
401.958	486.88
402.182	476.88
402.406	473.88
402.63	498.88
402.854	452.88
403.078	480.88
403.302	479.88
403.526	485.88
403.75	463.88
403.974	469.88
404.198	479.88
404.422	470.88
404.645	469.88
404.869	499.88
405.093	551.88
405.317	569.88
405.541	600.88
405.765	546.88
405.988	518.88
406.212	527.88
406.436	496.88
406.66	567.88
406.883	533.88
407.107	550.88
407.331	585.88
407.555	640.88
407.778	662.88
408.002	595.88
408.226	546.88
408.449	522.88
408.673	544.88
408.896	546.88
409.12	629.88
409.344	592.88
409.567	514.88
409.791	506.88
410.014	488.88
410.238	482.88
410.461	488.88
410.685	493.88
410.908	498.88
411.132	538.88
411.355	581.88
411.578	531.88
411.802	484.88
412.025	465.88
412.249	491.88
412.472	525.88
412.695	542.88
412.919	546.88
413.142	487.88
413.365	484.88
413.589	477.88
413.812	453.88
414.035	448.88
414.258	461.88
414.482	451.88
414.705	438.88
414.928	462.88
415.151	441.88
415.374	447.88
415.597	444.88
415.821	427.88
416.044	443.88
416.267	462.88
416.49	458.88
416.713	441.88
416.936	462.88
417.159	458.88
417.382	472.88
417.605	486.88
417.828	456.88
418.051	506.88
418.274	487.88
418.497	461.88
418.72	483.88
418.943	459.88
419.166	472.88
419.389	474.88
419.611	491.88
419.834	472.88
420.057	470.88
420.28	487.88
420.503	492.88
420.726	492.88
420.948	484.88
421.171	547.88
421.394	565.88
421.617	500.88
421.839	489.88
422.062	470.88
422.285	508.88
422.507	583.88
422.73	638.88
422.953	601.88
423.175	536.88
423.398	516.88
423.621	503.88
423.843	520.88
424.066	516.88
424.288	527.88
424.511	557.88
424.733	610.88
424.956	664.88
425.178	652.88
425.401	669.88
425.623	673.88
425.846	572.88
426.068	531.88
426.291	514.88
426.513	529.88
426.735	545.88
426.958	585.88
427.18	668.88
427.402	783.88
427.625	872.88
427.847	756.88
428.069	681.88
428.292	617.88
428.514	525.88
428.736	524.88
428.958	536.88
429.181	486.88
429.403	470.88
429.625	508.88
429.847	508.88
430.069	587.88
430.292	592.88
430.514	520.88
430.736	473.88
430.958	457.88
431.18	459.88
431.402	430.88
431.624	437.88
431.846	429.88
432.068	445.88
432.29	453.88
432.512	450.88
432.734	465.88
432.956	465.88
433.178	459.88
433.4	493.88
433.622	450.88
433.844	452.88
434.066	454.88
434.287	468.88
434.509	458.88
434.731	482.88
434.953	467.88
435.175	488.88
435.397	528.88
435.618	535.88
435.84	567.88
436.062	663.88
436.284	740.88
436.505	598.88
436.727	554.88
436.949	494.88
437.17	490.88
437.392	524.88
437.614	517.88
437.835	567.88
438.057	642.88
438.278	728.88
438.5	733.88
438.721	810.88
438.943	754.88
439.165	628.88
439.386	556.88
439.608	564.88
439.829	552.88
440.05	596.88
440.272	620.88
440.493	585.88
440.715	535.88
440.936	516.88
441.158	489.88
441.379	485.88
441.6	520.88
441.822	520.88
442.043	552.88
442.264	650.88
442.486	696.88
442.707	579.88
442.928	550.88
443.149	540.88
443.371	582.88
443.592	636.88
443.813	689.88
444.034	761.88
444.255	621.88
444.476	564.88
444.698	517.88
444.919	544.88
445.14	666.88
445.361	609.88
445.582	587.88
445.803	634.88
446.024	752.88
446.245	769.88
446.466	700.88
446.687	606.88
446.908	546.88
447.129	514.88
447.35	486.88
447.571	502.88
447.792	490.88
448.013	491.88
448.234	518.88
448.455	557.88
448.675	672.88
448.896	770.88
449.117	663.88
449.338	658.88
449.559	734.88
449.779	840.88
450	661.88
450.221	562.88
450.442	511.88
450.662	477.88
450.883	494.88
451.104	484.88
451.324	510.88
451.545	481.88
451.766	437.88
451.986	419.88
452.207	409.88
452.428	444.88
452.648	423.88
452.869	441.88
453.089	442.88
453.31	481.88
453.53	467.88
453.751	450.88
453.971	432.88
454.192	468.88
454.412	433.88
454.633	438.88
454.853	426.88
455.073	444.88
455.294	468.88
455.514	537.88
455.734	521.88
455.955	448.88
456.175	416.88
456.395	426.88
456.616	400.88
456.836	400.88
457.056	397.88
457.276	398.88
457.497	390.88
457.717	419.88
457.937	407.88
458.157	415.88
458.377	416.88
458.598	448.88
458.818	529.88
459.038	603.88
459.258	646.88
459.478	512.88
459.698	482.88
459.918	454.88
460.138	423.88
460.358	432.88
460.578	427.88
460.798	423.88
461.018	450.88
461.238	444.88
461.458	453.88
461.678	437.88
461.898	444.88
462.118	440.88
462.338	434.88
462.558	457.88
462.777	456.88
462.997	467.88
463.217	450.88
463.437	478.88
463.657	456.88
463.876	473.88
464.096	473.88
464.316	457.88
464.536	467.88
464.755	469.88
464.975	484.88
465.195	533.88
465.414	638.88
465.634	556.88
465.854	515.88
466.073	464.88
466.293	432.88
466.512	426.88
466.732	415.88
466.951	442.88
467.171	436.88
467.391	442.88
467.61	458.88
467.829	475.88
468.049	465.88
468.268	426.88
468.488	420.88
468.707	425.88
468.927	423.88
469.146	401.88
469.365	420.88
469.585	418.88
469.804	425.88
470.023	420.88
470.243	447.88
470.462	469.88
470.681	448.88
470.901	476.88
471.12	424.88
471.339	445.88
471.558	442.88
471.777	455.88
471.997	421.88
472.216	457.88
472.435	491.88
472.654	490.88
472.873	443.88
473.092	432.88
473.311	438.88
473.53	448.88
473.749	473.88
473.968	481.88
474.187	627.88
474.406	641.88
474.625	516.88
474.844	458.88
475.063	458.88
475.282	456.88
475.501	441.88
475.72	449.88
475.939	436.88
476.158	450.88
476.377	466.88
476.596	488.88
476.814	465.88
477.033	482.88
477.252	484.88
477.471	457.88
477.69	467.88
477.908	475.88
478.127	460.88
478.346	448.88
478.564	482.88
478.783	515.88
479.002	486.88
479.22	485.88
479.439	491.88
479.658	509.88
479.876	549.88
480.095	544.88
480.313	545.88
480.532	569.88
480.751	550.88
480.969	524.88
481.188	650.88
481.406	672.88
481.624	598.88
481.843	557.88
482.061	540.88
482.28	549.88
482.498	538.88
482.717	515.88
482.935	511.88
483.153	536.88
483.372	532.88
483.59	516.88
483.808	510.88
484.027	522.88
484.245	517.88
484.463	518.88
484.681	525.88
484.9	522.88
485.118	555.88
485.336	538.88
485.554	554.88
485.772	531.88
485.99	547.88
486.209	540.88
486.427	542.88
486.645	554.88
486.863	573.88
487.081	567.88
487.299	578.88
487.517	550.88
487.735	572.88
487.953	562.88
488.171	555.88
488.389	572.88
488.607	566.88
488.825	544.88
489.043	574.88
489.261	578.88
489.479	576.88
489.696	569.88
489.914	577.88
490.132	598.88
490.35	607.88
490.568	595.88
490.786	620.88
491.003	610.88
491.221	616.88
491.439	629.88
491.657	644.88
491.874	641.88
492.092	661.88
492.31	666.88
492.527	665.88
492.745	666.88
492.963	660.88
493.18	674.88
493.398	686.88
493.615	646.88
493.833	669.88
494.05	699.88
494.268	674.88
494.485	676.88
494.703	646.88
494.92	677.88
495.138	664.88
495.355	644.88
495.573	688.88
495.79	676.88
496.008	695.88
496.225	668.88
496.442	651.88
496.66	676.88
496.877	647.88
497.094	703.88
497.312	690.88
497.529	685.88
497.746	667.88
497.963	692.88
498.181	707.88
498.398	716.88
498.615	742.88
498.832	737.88
499.049	727.88
499.267	738.88
499.484	748.88
499.701	801.88
499.918	796.88
500.135	848.88
500.352	865.88
500.569	860.88
500.786	857.88
501.003	859.88
501.22	871.88
501.437	847.88
501.654	853.88
501.871	828.88
