Data from 1989.PennyLincolnUp.Lamp.En5.5.200Scan.071819.P2_HRD10591_17-25-47-974.txt Node
Date: Thu Jul 18 17:25:47 EDT 2019
User: cochatt
Spectrometer: HR+D1059
Trigger mode: 1
Integration Time (sec): 1.000000E-1
Scans to average: 1
Electric dark correction enabled: true
Nonlinearity correction enabled: false
Boxcar width: 0
XAxis mode: Wavelengths
Number of Pixels in Spectrum: 2048
>>>>>Begin Spectral Data<<<<<
223.165	-12.44
223.4	-12.44
223.635	-12.44
223.869	-8.44
224.104	-23.44
224.338	-12.44
224.573	-21.44
224.808	-24.44
225.042	-9.44
225.277	-3.44
225.511	-0.44
225.746	-3.44
225.98	10.56
226.215	20.56
226.449	16.56
226.683	18.56
226.918	19.56
227.152	33.56
227.387	39.56
227.621	33.56
227.856	69.56
228.09	50.56
228.324	51.56
228.559	66.56
228.793	62.56
229.027	111.56
229.262	110.56
229.496	116.56
229.73	144.56
229.964	162.56
230.199	118.56
230.433	106.56
230.667	119.56
230.901	130.56
231.136	110.56
231.37	122.56
231.604	125.56
231.838	122.56
232.072	111.56
232.306	103.56
232.541	118.56
232.775	108.56
233.009	130.56
233.243	124.56
233.477	121.56
233.711	115.56
233.945	127.56
234.179	132.56
234.413	122.56
234.647	130.56
234.881	115.56
235.115	128.56
235.349	116.56
235.583	118.56
235.817	122.56
236.051	145.56
236.285	127.56
236.519	128.56
236.753	153.56
236.987	160.56
237.221	199.56
237.455	260.56
237.689	195.56
237.922	151.56
238.156	141.56
238.39	139.56
238.624	127.56
238.858	123.56
239.091	133.56
239.325	134.56
239.559	121.56
239.793	135.56
240.027	142.56
240.26	159.56
240.494	172.56
240.728	172.56
240.961	159.56
241.195	141.56
241.429	154.56
241.662	145.56
241.896	136.56
242.13	150.56
242.363	149.56
242.597	139.56
242.83	148.56
243.064	138.56
243.298	156.56
243.531	145.56
243.765	176.56
243.998	166.56
244.232	160.56
244.465	165.56
244.699	159.56
244.932	155.56
245.166	139.56
245.399	176.56
245.633	157.56
245.866	183.56
246.099	151.56
246.333	159.56
246.566	175.56
246.8	151.56
247.033	175.56
247.266	169.56
247.5	188.56
247.733	184.56
247.966	183.56
248.2	206.56
248.433	205.56
248.666	202.56
248.899	206.56
249.133	215.56
249.366	230.56
249.599	218.56
249.832	204.56
250.066	193.56
250.299	200.56
250.532	230.56
250.765	218.56
250.998	258.56
251.231	278.56
251.465	255.56
251.698	254.56
251.931	223.56
252.164	219.56
252.397	205.56
252.63	224.56
252.863	239.56
253.096	256.56
253.329	267.56
253.562	264.56
253.795	246.56
254.028	251.56
254.261	262.56
254.494	267.56
254.727	291.56
254.96	318.56
255.193	303.56
255.426	272.56
255.659	286.56
255.892	281.56
256.124	273.56
256.357	280.56
256.59	265.56
256.823	252.56
257.056	241.56
257.289	240.56
257.521	245.56
257.754	242.56
257.987	228.56
258.22	245.56
258.452	226.56
258.685	235.56
258.918	219.56
259.151	235.56
259.383	260.56
259.616	242.56
259.849	252.56
260.081	267.56
260.314	283.56
260.547	299.56
260.779	278.56
261.012	250.56
261.244	263.56
261.477	254.56
261.71	242.56
261.942	263.56
262.175	290.56
262.407	279.56
262.64	235.56
262.872	240.56
263.105	253.56
263.337	245.56
263.57	239.56
263.802	248.56
264.035	247.56
264.267	251.56
264.499	231.56
264.732	237.56
264.964	234.56
265.197	235.56
265.429	229.56
265.661	242.56
265.894	226.56
266.126	232.56
266.358	240.56
266.591	254.56
266.823	237.56
267.055	252.56
267.287	260.56
267.52	259.56
267.752	253.56
267.984	250.56
268.216	242.56
268.448	261.56
268.681	265.56
268.913	265.56
269.145	300.56
269.377	314.56
269.609	313.56
269.841	307.56
270.073	314.56
270.306	323.56
270.538	362.56
270.77	362.56
271.002	342.56
271.234	315.56
271.466	341.56
271.698	334.56
271.93	367.56
272.162	356.56
272.394	353.56
272.626	341.56
272.858	338.56
273.09	314.56
273.322	308.56
273.553	293.56
273.785	302.56
274.017	298.56
274.249	291.56
274.481	299.56
274.713	304.56
274.945	301.56
275.176	306.56
275.408	300.56
275.64	278.56
275.872	294.56
276.104	283.56
276.335	306.56
276.567	320.56
276.799	326.56
277.031	336.56
277.262	353.56
277.494	367.56
277.726	344.56
277.957	337.56
278.189	334.56
278.421	315.56
278.652	290.56
278.884	308.56
279.115	299.56
279.347	300.56
279.579	316.56
279.81	306.56
280.042	294.56
280.273	294.56
280.505	296.56
280.736	308.56
280.968	276.56
281.199	269.56
281.431	284.56
281.662	295.56
281.894	309.56
282.125	306.56
282.356	302.56
282.588	353.56
282.819	324.56
283.051	303.56
283.282	287.56
283.513	311.56
283.745	307.56
283.976	300.56
284.207	308.56
284.439	306.56
284.67	309.56
284.901	317.56
285.132	311.56
285.364	322.56
285.595	313.56
285.826	292.56
286.057	316.56
286.288	290.56
286.52	317.56
286.751	317.56
286.982	312.56
287.213	326.56
287.444	323.56
287.675	288.56
287.906	311.56
288.138	333.56
288.369	336.56
288.6	332.56
288.831	315.56
289.062	314.56
289.293	311.56
289.524	308.56
289.755	332.56
289.986	308.56
290.217	339.56
290.448	321.56
290.679	319.56
290.91	318.56
291.141	336.56
291.371	312.56
291.602	310.56
291.833	309.56
292.064	319.56
292.295	302.56
292.526	319.56
292.757	315.56
292.987	315.56
293.218	322.56
293.449	304.56
293.68	320.56
293.91	334.56
294.141	327.56
294.372	326.56
294.603	325.56
294.833	306.56
295.064	299.56
295.295	314.56
295.525	317.56
295.756	327.56
295.987	325.56
296.217	380.56
296.448	377.56
296.679	343.56
296.909	309.56
297.14	331.56
297.37	334.56
297.601	318.56
297.831	340.56
298.062	330.56
298.292	315.56
298.523	337.56
298.753	343.56
298.984	340.56
299.214	334.56
299.445	319.56
299.675	334.56
299.905	339.56
300.136	331.56
300.366	335.56
300.597	324.56
300.827	350.56
301.057	367.56
301.288	340.56
301.518	351.56
301.748	351.56
301.979	357.56
302.209	340.56
302.439	361.56
302.669	348.56
302.9	359.56
303.13	358.56
303.36	385.56
303.59	351.56
303.82	386.56
304.051	367.56
304.281	360.56
304.511	372.56
304.741	357.56
304.971	357.56
305.201	360.56
305.431	356.56
305.661	356.56
305.891	348.56
306.121	344.56
306.352	371.56
306.582	378.56
306.812	378.56
307.042	351.56
307.272	338.56
307.502	360.56
307.731	362.56
307.961	351.56
308.191	378.56
308.421	362.56
308.651	372.56
308.881	367.56
309.111	355.56
309.341	388.56
309.571	402.56
309.8	391.56
310.03	405.56
310.26	404.56
310.49	399.56
310.72	432.56
310.949	431.56
311.179	455.56
311.409	409.56
311.639	408.56
311.868	439.56
312.098	407.56
312.328	430.56
312.557	451.56
312.787	479.56
313.017	456.56
313.246	440.56
313.476	423.56
313.706	420.56
313.935	436.56
314.165	434.56
314.394	439.56
314.624	431.56
314.853	423.56
315.083	426.56
315.312	421.56
315.542	386.56
315.771	395.56
316.001	399.56
316.23	391.56
316.46	413.56
316.689	436.56
316.919	416.56
317.148	421.56
317.377	437.56
317.607	447.56
317.836	407.56
318.065	422.56
318.295	418.56
318.524	404.56
318.753	408.56
318.983	414.56
319.212	432.56
319.441	425.56
319.67	445.56
319.9	428.56
320.129	404.56
320.358	420.56
320.587	419.56
320.816	411.56
321.046	424.56
321.275	442.56
321.504	458.56
321.733	448.56
321.962	454.56
322.191	460.56
322.42	477.56
322.649	486.56
322.878	515.56
323.108	542.56
323.337	528.56
323.566	568.56
323.795	595.56
324.024	662.56
324.253	823.56
324.482	1175.56
324.71	1817.56
324.939	2560.56
325.168	2271.56
325.397	1148.56
325.626	762.56
325.855	636.56
326.084	598.56
326.313	571.56
326.542	582.56
326.77	624.56
326.999	742.56
327.228	1050.56
327.457	1616.56
327.686	1925.56
327.914	1332.56
328.143	851.56
328.372	754.56
328.6	692.56
328.829	656.56
329.058	659.56
329.287	680.56
329.515	640.56
329.744	592.56
329.972	595.56
330.201	637.56
330.43	670.56
330.658	710.56
330.887	685.56
331.115	660.56
331.344	592.56
331.572	559.56
331.801	546.56
332.03	544.56
332.258	525.56
332.486	523.56
332.715	481.56
332.943	484.56
333.172	518.56
333.4	507.56
333.629	498.56
333.857	536.56
334.085	548.56
334.314	575.56
334.542	640.56
334.771	639.56
334.999	584.56
335.227	517.56
335.455	528.56
335.684	514.56
335.912	516.56
336.14	480.56
336.369	481.56
336.597	458.56
336.825	485.56
337.053	472.56
337.281	453.56
337.51	464.56
337.738	482.56
337.966	463.56
338.194	480.56
338.422	496.56
338.65	479.56
338.878	458.56
339.106	420.56
339.334	476.56
339.562	475.56
339.79	464.56
340.018	466.56
340.246	466.56
340.474	474.56
340.702	467.56
340.93	471.56
341.158	468.56
341.386	471.56
341.614	459.56
341.842	490.56
342.07	442.56
342.298	454.56
342.526	458.56
342.754	454.56
342.981	450.56
343.209	435.56
343.437	457.56
343.665	429.56
343.893	472.56
344.12	466.56
344.348	474.56
344.576	471.56
344.804	463.56
345.031	479.56
345.259	487.56
345.487	472.56
345.714	467.56
345.942	448.56
346.17	449.56
346.397	444.56
346.625	446.56
346.853	443.56
347.08	422.56
347.308	452.56
347.535	462.56
347.763	454.56
347.99	454.56
348.218	467.56
348.445	450.56
348.673	465.56
348.9	448.56
349.128	434.56
349.355	414.56
349.583	422.56
349.81	447.56
350.037	432.56
350.265	412.56
350.492	429.56
350.72	427.56
350.947	425.56
351.174	459.56
351.402	424.56
351.629	445.56
351.856	454.56
352.083	456.56
352.311	458.56
352.538	459.56
352.765	445.56
352.992	447.56
353.22	442.56
353.447	445.56
353.674	434.56
353.901	411.56
354.128	397.56
354.355	413.56
354.583	416.56
354.81	411.56
355.037	411.56
355.264	426.56
355.491	405.56
355.718	398.56
355.945	392.56
356.172	398.56
356.399	394.56
356.626	404.56
356.853	397.56
357.08	396.56
357.307	388.56
357.534	408.56
357.761	404.56
357.988	403.56
358.215	396.56
358.441	377.56
358.668	432.56
358.895	412.56
359.122	424.56
359.349	438.56
359.576	429.56
359.802	461.56
360.029	489.56
360.256	514.56
360.483	487.56
360.709	460.56
360.936	462.56
361.163	435.56
361.39	425.56
361.616	432.56
361.843	420.56
362.07	447.56
362.296	449.56
362.523	416.56
362.749	420.56
362.976	431.56
363.203	428.56
363.429	411.56
363.656	425.56
363.882	411.56
364.109	416.56
364.335	413.56
364.562	424.56
364.788	422.56
365.015	410.56
365.241	395.56
365.468	407.56
365.694	420.56
365.92	417.56
366.147	403.56
366.373	418.56
366.599	407.56
366.826	412.56
367.052	400.56
367.278	424.56
367.505	409.56
367.731	401.56
367.957	401.56
368.184	401.56
368.41	413.56
368.636	425.56
368.862	434.56
369.089	417.56
369.315	396.56
369.541	415.56
369.767	438.56
369.993	420.56
370.219	400.56
370.445	404.56
370.672	394.56
370.898	401.56
371.124	408.56
371.35	399.56
371.576	404.56
371.802	393.56
372.028	391.56
372.254	392.56
372.48	407.56
372.706	400.56
372.932	409.56
373.158	394.56
373.384	393.56
373.61	408.56
373.835	391.56
374.061	399.56
374.287	395.56
374.513	396.56
374.739	390.56
374.965	388.56
375.191	397.56
375.416	404.56
375.642	396.56
375.868	401.56
376.094	397.56
376.319	398.56
376.545	411.56
376.771	396.56
376.997	419.56
377.222	397.56
377.448	386.56
377.674	391.56
377.899	387.56
378.125	386.56
378.35	391.56
378.576	399.56
378.802	394.56
379.027	383.56
379.253	387.56
379.478	381.56
379.704	406.56
379.929	400.56
380.155	408.56
380.38	382.56
380.606	393.56
380.831	398.56
381.057	421.56
381.282	400.56
381.507	376.56
381.733	407.56
381.958	394.56
382.184	411.56
382.409	395.56
382.634	395.56
382.86	401.56
383.085	412.56
383.31	413.56
383.535	415.56
383.761	420.56
383.986	414.56
384.211	391.56
384.436	431.56
384.662	412.56
384.887	418.56
385.112	424.56
385.337	391.56
385.562	407.56
385.787	396.56
386.013	430.56
386.238	420.56
386.463	428.56
386.688	427.56
386.913	410.56
387.138	430.56
387.363	406.56
387.588	430.56
387.813	412.56
388.038	402.56
388.263	402.56
388.488	428.56
388.713	412.56
388.938	407.56
389.163	423.56
389.387	428.56
389.612	400.56
389.837	420.56
390.062	421.56
390.287	412.56
390.512	417.56
390.736	410.56
390.961	419.56
391.186	419.56
391.411	418.56
391.636	398.56
391.86	430.56
392.085	420.56
392.31	410.56
392.534	408.56
392.759	415.56
392.984	426.56
393.208	408.56
393.433	414.56
393.658	409.56
393.882	420.56
394.107	420.56
394.331	426.56
394.556	427.56
394.78	417.56
395.005	404.56
395.229	409.56
395.454	413.56
395.678	430.56
395.903	447.56
396.127	450.56
396.352	459.56
396.576	442.56
396.801	444.56
397.025	426.56
397.249	429.56
397.474	446.56
397.698	431.56
397.922	452.56
398.147	462.56
398.371	482.56
398.595	456.56
398.82	456.56
399.044	478.56
399.268	481.56
399.492	499.56
399.717	531.56
399.941	551.56
400.165	573.56
400.389	586.56
400.613	532.56
400.837	490.56
401.062	497.56
401.286	474.56
401.51	480.56
401.734	487.56
401.958	482.56
402.182	462.56
402.406	492.56
402.63	479.56
402.854	478.56
403.078	492.56
403.302	465.56
403.526	514.56
403.75	495.56
403.974	487.56
404.198	497.56
404.422	485.56
404.645	511.56
404.869	500.56
405.093	551.56
405.317	602.56
405.541	636.56
405.765	566.56
405.988	536.56
406.212	546.56
406.436	536.56
406.66	560.56
406.883	541.56
407.107	528.56
407.331	629.56
407.555	673.56
407.778	643.56
408.002	601.56
408.226	563.56
408.449	546.56
408.673	549.56
408.896	553.56
409.12	581.56
409.344	574.56
409.567	517.56
409.791	506.56
410.014	476.56
410.238	471.56
410.461	468.56
410.685	498.56
410.908	505.56
411.132	551.56
411.355	572.56
411.578	549.56
411.802	517.56
412.025	493.56
412.249	495.56
412.472	532.56
412.695	606.56
412.919	563.56
413.142	506.56
413.365	474.56
413.589	477.56
413.812	474.56
414.035	476.56
414.258	447.56
414.482	458.56
414.705	475.56
414.928	437.56
415.151	460.56
415.374	447.56
415.597	463.56
415.821	462.56
416.044	461.56
416.267	463.56
416.49	447.56
416.713	460.56
416.936	439.56
417.159	451.56
417.382	467.56
417.605	476.56
417.828	489.56
418.051	500.56
418.274	476.56
418.497	469.56
418.72	468.56
418.943	460.56
419.166	457.56
419.389	475.56
419.611	508.56
419.834	491.56
420.057	495.56
420.28	502.56
420.503	514.56
420.726	499.56
420.948	496.56
421.171	554.56
421.394	570.56
421.617	502.56
421.839	503.56
422.062	484.56
422.285	497.56
422.507	548.56
422.73	634.56
422.953	619.56
423.175	537.56
423.398	501.56
423.621	514.56
423.843	542.56
424.066	535.56
424.288	512.56
424.511	551.56
424.733	598.56
424.956	690.56
425.178	665.56
425.401	674.56
425.623	678.56
425.846	575.56
426.068	546.56
426.291	512.56
426.513	543.56
426.735	550.56
426.958	589.56
427.18	678.56
427.402	789.56
427.625	863.56
427.847	788.56
428.069	678.56
428.292	614.56
428.514	540.56
428.736	523.56
428.958	499.56
429.181	495.56
429.403	479.56
429.625	507.56
429.847	516.56
430.069	590.56
430.292	610.56
430.514	509.56
430.736	490.56
430.958	493.56
431.18	472.56
431.402	475.56
431.624	437.56
431.846	465.56
432.068	462.56
432.29	461.56
432.512	455.56
432.734	476.56
432.956	478.56
433.178	486.56
433.4	487.56
433.622	445.56
433.844	464.56
434.066	455.56
434.287	436.56
434.509	438.56
434.731	449.56
434.953	479.56
435.175	491.56
435.397	513.56
435.618	516.56
435.84	583.56
436.062	681.56
436.284	733.56
436.505	627.56
436.727	535.56
436.949	481.56
437.17	483.56
437.392	486.56
437.614	533.56
437.835	555.56
438.057	644.56
438.278	755.56
438.5	712.56
438.721	802.56
438.943	774.56
439.165	631.56
439.386	566.56
439.608	555.56
439.829	522.56
440.05	578.56
440.272	640.56
440.493	589.56
440.715	547.56
440.936	516.56
441.158	499.56
441.379	503.56
441.6	499.56
441.822	527.56
442.043	575.56
442.264	648.56
442.486	682.56
442.707	590.56
442.928	552.56
443.149	551.56
443.371	570.56
443.592	627.56
443.813	728.56
444.034	785.56
444.255	662.56
444.476	559.56
444.698	543.56
444.919	533.56
445.14	652.56
445.361	592.56
445.582	589.56
445.803	636.56
446.024	754.56
446.245	772.56
446.466	723.56
446.687	585.56
446.908	543.56
447.129	516.56
447.35	484.56
447.571	519.56
447.792	498.56
448.013	484.56
448.234	528.56
448.455	572.56
448.675	648.56
448.896	794.56
449.117	687.56
449.338	642.56
449.559	740.56
449.779	844.56
450	668.56
450.221	564.56
450.442	502.56
450.662	503.56
450.883	488.56
451.104	514.56
451.324	474.56
451.545	495.56
451.766	463.56
451.986	437.56
452.207	460.56
452.428	460.56
452.648	453.56
452.869	434.56
453.089	454.56
453.31	458.56
453.53	467.56
453.751	449.56
453.971	441.56
454.192	486.56
454.412	455.56
454.633	459.56
454.853	423.56
455.073	421.56
455.294	470.56
455.514	535.56
455.734	536.56
455.955	456.56
456.175	420.56
456.395	408.56
456.616	413.56
456.836	391.56
457.056	401.56
457.276	392.56
457.497	412.56
457.717	423.56
457.937	438.56
458.157	416.56
458.377	431.56
458.598	458.56
458.818	514.56
459.038	612.56
459.258	611.56
459.478	510.56
459.698	461.56
459.918	465.56
460.138	444.56
460.358	446.56
460.578	441.56
460.798	470.56
461.018	447.56
461.238	417.56
461.458	459.56
461.678	450.56
461.898	450.56
462.118	437.56
462.338	484.56
462.558	476.56
462.777	465.56
462.997	472.56
463.217	451.56
463.437	479.56
463.657	480.56
463.876	473.56
464.096	484.56
464.316	483.56
464.536	461.56
464.755	467.56
464.975	475.56
465.195	543.56
465.414	618.56
465.634	537.56
465.854	492.56
466.073	458.56
466.293	456.56
466.512	450.56
466.732	444.56
466.951	444.56
467.171	416.56
467.391	443.56
467.61	462.56
467.829	462.56
468.049	448.56
468.268	479.56
468.488	435.56
468.707	431.56
468.927	442.56
469.146	408.56
469.365	413.56
469.585	429.56
469.804	447.56
470.023	462.56
470.243	460.56
470.462	458.56
470.681	486.56
470.901	446.56
471.12	457.56
471.339	442.56
471.558	446.56
471.777	456.56
471.997	454.56
472.216	459.56
472.435	514.56
472.654	496.56
472.873	478.56
473.092	463.56
473.311	443.56
473.53	467.56
473.749	457.56
473.968	496.56
474.187	610.56
474.406	656.56
474.625	506.56
474.844	494.56
475.063	458.56
475.282	459.56
475.501	446.56
475.72	450.56
475.939	472.56
476.158	494.56
476.377	478.56
476.596	460.56
476.814	453.56
477.033	464.56
477.252	508.56
477.471	481.56
477.69	453.56
477.908	455.56
478.127	473.56
478.346	482.56
478.564	479.56
478.783	485.56
479.002	487.56
479.22	509.56
479.439	516.56
479.658	539.56
479.876	535.56
480.095	555.56
480.313	558.56
480.532	565.56
480.751	554.56
480.969	568.56
481.188	650.56
481.406	698.56
481.624	622.56
481.843	591.56
482.061	558.56
482.28	544.56
482.498	565.56
482.717	542.56
482.935	558.56
483.153	509.56
483.372	528.56
483.59	540.56
483.808	521.56
484.027	532.56
484.245	534.56
484.463	528.56
484.681	518.56
484.9	512.56
485.118	543.56
485.336	529.56
485.554	558.56
485.772	539.56
485.99	550.56
486.209	562.56
486.427	537.56
486.645	568.56
486.863	580.56
487.081	558.56
487.299	570.56
487.517	565.56
487.735	572.56
487.953	551.56
488.171	575.56
488.389	559.56
488.607	564.56
488.825	577.56
489.043	589.56
489.261	581.56
489.479	581.56
489.696	598.56
489.914	594.56
490.132	591.56
490.35	600.56
490.568	614.56
490.786	607.56
491.003	618.56
491.221	632.56
491.439	646.56
491.657	663.56
491.874	631.56
492.092	671.56
492.31	668.56
492.527	691.56
492.745	662.56
492.963	663.56
493.18	687.56
493.398	693.56
493.615	674.56
493.833	664.56
494.05	712.56
494.268	688.56
494.485	668.56
494.703	683.56
494.92	681.56
495.138	655.56
495.355	668.56
495.573	678.56
495.79	679.56
496.008	685.56
496.225	695.56
496.442	678.56
496.66	705.56
496.877	702.56
497.094	686.56
497.312	690.56
497.529	703.56
497.746	679.56
497.963	702.56
498.181	757.56
498.398	752.56
498.615	742.56
498.832	751.56
499.049	744.56
499.267	742.56
499.484	781.56
499.701	782.56
499.918	820.56
500.135	841.56
500.352	852.56
500.569	847.56
500.786	888.56
501.003	881.56
501.22	858.56
501.437	828.56
501.654	815.56
501.871	815.56
