Data from 1989.PennyLincolnUp.Lamp.En5.5.200Scan.071819.P2_HRD10591_17-24-07-973.txt Node
Date: Thu Jul 18 17:24:07 EDT 2019
User: cochatt
Spectrometer: HR+D1059
Trigger mode: 1
Integration Time (sec): 1.000000E-1
Scans to average: 1
Electric dark correction enabled: true
Nonlinearity correction enabled: false
Boxcar width: 0
XAxis mode: Wavelengths
Number of Pixels in Spectrum: 2048
>>>>>Begin Spectral Data<<<<<
223.165	-29.25
223.4	-29.25
223.635	-29.25
223.869	-5.25
224.104	-10.25
224.338	-11.25
224.573	-16.25
224.808	-18.25
225.042	-3.25
225.277	-16.25
225.511	-11.25
225.746	-2.25
225.98	15.75
226.215	15.75
226.449	13.75
226.683	21.75
226.918	23.75
227.152	32.75
227.387	31.75
227.621	36.75
227.856	35.75
228.09	41.75
228.324	53.75
228.559	51.75
228.793	57.75
229.027	97.75
229.262	100.75
229.496	104.75
229.73	131.75
229.964	165.75
230.199	150.75
230.433	103.75
230.667	121.75
230.901	116.75
231.136	116.75
231.37	123.75
231.604	112.75
231.838	114.75
232.072	114.75
232.306	124.75
232.541	111.75
232.775	107.75
233.009	115.75
233.243	102.75
233.477	125.75
233.711	104.75
233.945	109.75
234.179	104.75
234.413	120.75
234.647	131.75
234.881	113.75
235.115	102.75
235.349	121.75
235.583	104.75
235.817	117.75
236.051	122.75
236.285	120.75
236.519	107.75
236.753	137.75
236.987	139.75
237.221	199.75
237.455	227.75
237.689	197.75
237.922	147.75
238.156	132.75
238.39	132.75
238.624	122.75
238.858	128.75
239.091	137.75
239.325	119.75
239.559	123.75
239.793	128.75
240.027	145.75
240.26	158.75
240.494	149.75
240.728	156.75
240.961	145.75
241.195	151.75
241.429	152.75
241.662	136.75
241.896	124.75
242.13	140.75
242.363	136.75
242.597	134.75
242.83	129.75
243.064	146.75
243.298	147.75
243.531	154.75
243.765	148.75
243.998	143.75
244.232	145.75
244.465	151.75
244.699	141.75
244.932	149.75
245.166	142.75
245.399	159.75
245.633	179.75
245.866	165.75
246.099	133.75
246.333	154.75
246.566	153.75
246.8	169.75
247.033	157.75
247.266	150.75
247.5	168.75
247.733	192.75
247.966	192.75
248.2	171.75
248.433	176.75
248.666	183.75
248.899	194.75
249.133	201.75
249.366	232.75
249.599	205.75
249.832	190.75
250.066	184.75
250.299	195.75
250.532	195.75
250.765	209.75
250.998	223.75
251.231	249.75
251.465	223.75
251.698	221.75
251.931	209.75
252.164	206.75
252.397	205.75
252.63	245.75
252.863	253.75
253.096	229.75
253.329	253.75
253.562	242.75
253.795	222.75
254.028	234.75
254.261	234.75
254.494	272.75
254.727	275.75
254.96	288.75
255.193	299.75
255.426	250.75
255.659	254.75
255.892	241.75
256.124	232.75
256.357	235.75
256.59	231.75
256.823	214.75
257.056	237.75
257.289	227.75
257.521	227.75
257.754	214.75
257.987	220.75
258.22	219.75
258.452	219.75
258.685	209.75
258.918	230.75
259.151	231.75
259.383	239.75
259.616	230.75
259.849	218.75
260.081	260.75
260.314	257.75
260.547	270.75
260.779	255.75
261.012	267.75
261.244	258.75
261.477	265.75
261.71	231.75
261.942	243.75
262.175	256.75
262.407	263.75
262.64	230.75
262.872	216.75
263.105	246.75
263.337	230.75
263.57	243.75
263.802	213.75
264.035	210.75
264.267	212.75
264.499	226.75
264.732	215.75
264.964	217.75
265.197	238.75
265.429	233.75
265.661	230.75
265.894	213.75
266.126	229.75
266.358	249.75
266.591	224.75
266.823	225.75
267.055	260.75
267.287	236.75
267.52	231.75
267.752	255.75
267.984	239.75
268.216	242.75
268.448	259.75
268.681	259.75
268.913	259.75
269.145	262.75
269.377	305.75
269.609	295.75
269.841	297.75
270.073	287.75
270.306	305.75
270.538	345.75
270.77	319.75
271.002	326.75
271.234	316.75
271.466	325.75
271.698	332.75
271.93	320.75
272.162	336.75
272.394	356.75
272.626	336.75
272.858	326.75
273.09	290.75
273.322	299.75
273.553	279.75
273.785	274.75
274.017	281.75
274.249	294.75
274.481	284.75
274.713	291.75
274.945	282.75
275.176	292.75
275.408	267.75
275.64	274.75
275.872	267.75
276.104	286.75
276.335	269.75
276.567	296.75
276.799	314.75
277.031	324.75
277.262	340.75
277.494	329.75
277.726	333.75
277.957	300.75
278.189	310.75
278.421	284.75
278.652	283.75
278.884	290.75
279.115	286.75
279.347	286.75
279.579	275.75
279.81	283.75
280.042	277.75
280.273	290.75
280.505	297.75
280.736	270.75
280.968	281.75
281.199	273.75
281.431	289.75
281.662	290.75
281.894	285.75
282.125	288.75
282.356	323.75
282.588	306.75
282.819	328.75
283.051	276.75
283.282	287.75
283.513	284.75
283.745	296.75
283.976	292.75
284.207	293.75
284.439	301.75
284.67	298.75
284.901	292.75
285.132	294.75
285.364	290.75
285.595	304.75
285.826	277.75
286.057	295.75
286.288	314.75
286.52	291.75
286.751	296.75
286.982	283.75
287.213	284.75
287.444	277.75
287.675	309.75
287.906	312.75
288.138	333.75
288.369	329.75
288.6	309.75
288.831	310.75
289.062	311.75
289.293	294.75
289.524	317.75
289.755	311.75
289.986	317.75
290.217	291.75
290.448	296.75
290.679	301.75
290.91	311.75
291.141	313.75
291.371	293.75
291.602	301.75
291.833	305.75
292.064	334.75
292.295	297.75
292.526	299.75
292.757	306.75
292.987	314.75
293.218	309.75
293.449	320.75
293.68	298.75
293.91	307.75
294.141	313.75
294.372	283.75
294.603	319.75
294.833	306.75
295.064	299.75
295.295	308.75
295.525	307.75
295.756	311.75
295.987	318.75
296.217	350.75
296.448	353.75
296.679	317.75
296.909	319.75
297.14	330.75
297.37	321.75
297.601	336.75
297.831	324.75
298.062	324.75
298.292	322.75
298.523	332.75
298.753	332.75
298.984	316.75
299.214	323.75
299.445	328.75
299.675	311.75
299.905	310.75
300.136	329.75
300.366	335.75
300.597	309.75
300.827	337.75
301.057	339.75
301.288	352.75
301.518	347.75
301.748	337.75
301.979	332.75
302.209	345.75
302.439	328.75
302.669	339.75
302.9	348.75
303.13	341.75
303.36	341.75
303.59	344.75
303.82	362.75
304.051	341.75
304.281	343.75
304.511	341.75
304.741	326.75
304.971	343.75
305.201	330.75
305.431	351.75
305.661	356.75
305.891	340.75
306.121	351.75
306.352	334.75
306.582	363.75
306.812	354.75
307.042	356.75
307.272	356.75
307.502	337.75
307.731	356.75
307.961	360.75
308.191	340.75
308.421	344.75
308.651	346.75
308.881	350.75
309.111	377.75
309.341	363.75
309.571	379.75
309.8	380.75
310.03	356.75
310.26	403.75
310.49	403.75
310.72	409.75
310.949	403.75
311.179	426.75
311.409	421.75
311.639	395.75
311.868	404.75
312.098	407.75
312.328	413.75
312.557	419.75
312.787	451.75
313.017	429.75
313.246	406.75
313.476	404.75
313.706	386.75
313.935	407.75
314.165	415.75
314.394	431.75
314.624	433.75
314.853	413.75
315.083	426.75
315.312	411.75
315.542	417.75
315.771	387.75
316.001	380.75
316.23	383.75
316.46	377.75
316.689	382.75
316.919	395.75
317.148	414.75
317.377	432.75
317.607	393.75
317.836	401.75
318.065	388.75
318.295	404.75
318.524	387.75
318.753	389.75
318.983	418.75
319.212	411.75
319.441	410.75
319.67	438.75
319.9	427.75
320.129	424.75
320.358	407.75
320.587	408.75
320.816	433.75
321.046	419.75
321.275	431.75
321.504	413.75
321.733	411.75
321.962	434.75
322.191	448.75
322.42	461.75
322.649	494.75
322.878	486.75
323.108	498.75
323.337	517.75
323.566	549.75
323.795	576.75
324.024	628.75
324.253	737.75
324.482	1064.75
324.71	1660.75
324.939	2376.75
325.168	2057.75
325.397	1089.75
325.626	748.75
325.855	611.75
326.084	552.75
326.313	556.75
326.542	561.75
326.77	599.75
326.999	722.75
327.228	971.75
327.457	1447.75
327.686	1776.75
327.914	1189.75
328.143	801.75
328.372	661.75
328.6	620.75
328.829	577.75
329.058	625.75
329.287	632.75
329.515	572.75
329.744	532.75
329.972	515.75
330.201	512.75
330.43	549.75
330.658	612.75
330.887	660.75
331.115	620.75
331.344	539.75
331.572	521.75
331.801	505.75
332.03	495.75
332.258	443.75
332.486	470.75
332.715	460.75
332.943	458.75
333.172	452.75
333.4	455.75
333.629	469.75
333.857	483.75
334.085	483.75
334.314	474.75
334.542	456.75
334.771	488.75
334.999	481.75
335.227	468.75
335.455	496.75
335.684	472.75
335.912	456.75
336.14	448.75
336.369	440.75
336.597	477.75
336.825	474.75
337.053	447.75
337.281	478.75
337.51	453.75
337.738	474.75
337.966	441.75
338.194	444.75
338.422	458.75
338.65	459.75
338.878	427.75
339.106	465.75
339.334	439.75
339.562	450.75
339.79	446.75
340.018	427.75
340.246	439.75
340.474	447.75
340.702	452.75
340.93	419.75
341.158	416.75
341.386	427.75
341.614	448.75
341.842	422.75
342.07	400.75
342.298	434.75
342.526	440.75
342.754	425.75
342.981	434.75
343.209	419.75
343.437	437.75
343.665	420.75
343.893	429.75
344.12	445.75
344.348	452.75
344.576	448.75
344.804	457.75
345.031	478.75
345.259	461.75
345.487	455.75
345.714	447.75
345.942	429.75
346.17	432.75
346.397	410.75
346.625	412.75
346.853	419.75
347.08	440.75
347.308	407.75
347.535	420.75
347.763	439.75
347.99	429.75
348.218	441.75
348.445	435.75
348.673	441.75
348.9	454.75
349.128	417.75
349.355	419.75
349.583	430.75
349.81	419.75
350.037	398.75
350.265	410.75
350.492	400.75
350.72	420.75
350.947	425.75
351.174	424.75
351.402	422.75
351.629	454.75
351.856	416.75
352.083	427.75
352.311	448.75
352.538	462.75
352.765	443.75
352.992	433.75
353.22	448.75
353.447	412.75
353.674	399.75
353.901	399.75
354.128	422.75
354.355	410.75
354.583	398.75
354.81	384.75
355.037	373.75
355.264	402.75
355.491	377.75
355.718	379.75
355.945	388.75
356.172	388.75
356.399	382.75
356.626	394.75
356.853	389.75
357.08	385.75
357.307	400.75
357.534	389.75
357.761	399.75
357.988	389.75
358.215	381.75
358.441	391.75
358.668	400.75
358.895	383.75
359.122	421.75
359.349	421.75
359.576	400.75
359.802	435.75
360.029	445.75
360.256	496.75
360.483	457.75
360.709	415.75
360.936	428.75
361.163	418.75
361.39	428.75
361.616	428.75
361.843	431.75
362.07	421.75
362.296	414.75
362.523	400.75
362.749	416.75
362.976	416.75
363.203	403.75
363.429	408.75
363.656	399.75
363.882	394.75
364.109	398.75
364.335	392.75
364.562	401.75
364.788	416.75
365.015	395.75
365.241	405.75
365.468	387.75
365.694	407.75
365.92	401.75
366.147	396.75
366.373	410.75
366.599	400.75
366.826	382.75
367.052	387.75
367.278	395.75
367.505	391.75
367.731	403.75
367.957	397.75
368.184	406.75
368.41	415.75
368.636	419.75
368.862	407.75
369.089	407.75
369.315	392.75
369.541	387.75
369.767	400.75
369.993	381.75
370.219	365.75
370.445	395.75
370.672	378.75
370.898	416.75
371.124	375.75
371.35	380.75
371.576	379.75
371.802	401.75
372.028	390.75
372.254	389.75
372.48	421.75
372.706	376.75
372.932	393.75
373.158	398.75
373.384	411.75
373.61	393.75
373.835	400.75
374.061	389.75
374.287	420.75
374.513	416.75
374.739	383.75
374.965	391.75
375.191	381.75
375.416	371.75
375.642	390.75
375.868	386.75
376.094	386.75
376.319	363.75
376.545	389.75
376.771	398.75
376.997	390.75
377.222	381.75
377.448	389.75
377.674	380.75
377.899	381.75
378.125	383.75
378.35	383.75
378.576	392.75
378.802	401.75
379.027	373.75
379.253	384.75
379.478	383.75
379.704	367.75
379.929	373.75
380.155	361.75
380.38	377.75
380.606	373.75
380.831	390.75
381.057	409.75
381.282	382.75
381.507	362.75
381.733	377.75
381.958	375.75
382.184	390.75
382.409	397.75
382.634	390.75
382.86	391.75
383.085	400.75
383.31	381.75
383.535	381.75
383.761	407.75
383.986	398.75
384.211	402.75
384.436	389.75
384.662	412.75
384.887	395.75
385.112	394.75
385.337	392.75
385.562	402.75
385.787	395.75
386.013	411.75
386.238	398.75
386.463	421.75
386.688	430.75
386.913	403.75
387.138	423.75
387.363	423.75
387.588	404.75
387.813	429.75
388.038	403.75
388.263	426.75
388.488	417.75
388.713	417.75
388.938	424.75
389.163	397.75
389.387	426.75
389.612	401.75
389.837	413.75
390.062	421.75
390.287	407.75
390.512	414.75
390.736	428.75
390.961	400.75
391.186	403.75
391.411	423.75
391.636	436.75
391.86	420.75
392.085	422.75
392.31	428.75
392.534	409.75
392.759	408.75
392.984	412.75
393.208	405.75
393.433	420.75
393.658	394.75
393.882	379.75
394.107	412.75
394.331	399.75
394.556	442.75
394.78	413.75
395.005	415.75
395.229	383.75
395.454	406.75
395.678	419.75
395.903	444.75
396.127	455.75
396.352	457.75
396.576	442.75
396.801	415.75
397.025	409.75
397.249	427.75
397.474	414.75
397.698	426.75
397.922	455.75
398.147	448.75
398.371	453.75
398.595	457.75
398.82	456.75
399.044	466.75
399.268	457.75
399.492	497.75
399.717	519.75
399.941	521.75
400.165	572.75
400.389	577.75
400.613	528.75
400.837	492.75
401.062	477.75
401.286	465.75
401.51	474.75
401.734	462.75
401.958	468.75
402.182	460.75
402.406	475.75
402.63	458.75
402.854	475.75
403.078	443.75
403.302	470.75
403.526	475.75
403.75	452.75
403.974	466.75
404.198	456.75
404.422	477.75
404.645	482.75
404.869	479.75
405.093	503.75
405.317	497.75
405.541	540.75
405.765	515.75
405.988	513.75
406.212	504.75
406.436	530.75
406.66	561.75
406.883	531.75
407.107	513.75
407.331	567.75
407.555	645.75
407.778	647.75
408.002	589.75
408.226	521.75
408.449	520.75
408.673	523.75
408.896	549.75
409.12	599.75
409.344	563.75
409.567	508.75
409.791	507.75
410.014	474.75
410.238	483.75
410.461	478.75
410.685	509.75
410.908	499.75
411.132	534.75
411.355	556.75
411.578	536.75
411.802	486.75
412.025	473.75
412.249	471.75
412.472	474.75
412.695	469.75
412.919	486.75
413.142	441.75
413.365	445.75
413.589	441.75
413.812	462.75
414.035	435.75
414.258	440.75
414.482	429.75
414.705	465.75
414.928	451.75
415.151	433.75
415.374	450.75
415.597	456.75
415.821	439.75
416.044	456.75
416.267	445.75
416.49	437.75
416.713	433.75
416.936	435.75
417.159	446.75
417.382	459.75
417.605	478.75
417.828	469.75
418.051	457.75
418.274	478.75
418.497	469.75
418.72	459.75
418.943	456.75
419.166	468.75
419.389	475.75
419.611	470.75
419.834	462.75
420.057	482.75
420.28	463.75
420.503	474.75
420.726	463.75
420.948	498.75
421.171	508.75
421.394	557.75
421.617	495.75
421.839	476.75
422.062	473.75
422.285	481.75
422.507	552.75
422.73	637.75
422.953	591.75
423.175	513.75
423.398	496.75
423.621	497.75
423.843	501.75
424.066	515.75
424.288	515.75
424.511	556.75
424.733	598.75
424.956	657.75
425.178	649.75
425.401	635.75
425.623	644.75
425.846	565.75
426.068	517.75
426.291	508.75
426.513	541.75
426.735	537.75
426.958	588.75
427.18	668.75
427.402	794.75
427.625	844.75
427.847	755.75
428.069	620.75
428.292	545.75
428.514	519.75
428.736	505.75
428.958	500.75
429.181	462.75
429.403	475.75
429.625	469.75
429.847	542.75
430.069	582.75
430.292	597.75
430.514	521.75
430.736	471.75
430.958	467.75
431.18	454.75
431.402	450.75
431.624	441.75
431.846	435.75
432.068	440.75
432.29	439.75
432.512	455.75
432.734	467.75
432.956	435.75
433.178	450.75
433.4	465.75
433.622	456.75
433.844	445.75
434.066	444.75
434.287	434.75
434.509	443.75
434.731	463.75
434.953	476.75
435.175	468.75
435.397	508.75
435.618	533.75
435.84	572.75
436.062	634.75
436.284	729.75
436.505	619.75
436.727	539.75
436.949	486.75
437.17	469.75
437.392	488.75
437.614	521.75
437.835	540.75
438.057	643.75
438.278	708.75
438.5	744.75
438.721	804.75
438.943	760.75
439.165	619.75
439.386	557.75
439.608	529.75
439.829	536.75
440.05	557.75
440.272	621.75
440.493	587.75
440.715	531.75
440.936	499.75
441.158	459.75
441.379	473.75
441.6	503.75
441.822	531.75
442.043	552.75
442.264	631.75
442.486	684.75
442.707	596.75
442.928	543.75
443.149	535.75
443.371	538.75
443.592	584.75
443.813	684.75
444.034	744.75
444.255	606.75
444.476	569.75
444.698	523.75
444.919	517.75
445.14	601.75
445.361	563.75
445.582	561.75
445.803	649.75
446.024	725.75
446.245	729.75
446.466	683.75
446.687	567.75
446.908	514.75
447.129	492.75
447.35	480.75
447.571	473.75
447.792	480.75
448.013	475.75
448.234	499.75
448.455	552.75
448.675	664.75
448.896	805.75
449.117	658.75
449.338	604.75
449.559	745.75
449.779	827.75
450	673.75
450.221	550.75
450.442	495.75
450.662	488.75
450.883	486.75
451.104	493.75
451.324	482.75
451.545	456.75
451.766	429.75
451.986	454.75
452.207	424.75
452.428	419.75
452.648	425.75
452.869	441.75
453.089	436.75
453.31	445.75
453.53	435.75
453.751	415.75
453.971	436.75
454.192	442.75
454.412	432.75
454.633	436.75
454.853	417.75
455.073	450.75
455.294	456.75
455.514	527.75
455.734	507.75
455.955	428.75
456.175	408.75
456.395	408.75
456.616	396.75
456.836	411.75
457.056	388.75
457.276	385.75
457.497	405.75
457.717	393.75
457.937	401.75
458.157	418.75
458.377	414.75
458.598	431.75
458.818	505.75
459.038	554.75
459.258	614.75
459.478	495.75
459.698	446.75
459.918	449.75
460.138	449.75
460.358	451.75
460.578	433.75
460.798	444.75
461.018	451.75
461.238	446.75
461.458	439.75
461.678	444.75
461.898	432.75
462.118	443.75
462.338	447.75
462.558	469.75
462.777	462.75
462.997	486.75
463.217	467.75
463.437	479.75
463.657	460.75
463.876	483.75
464.096	462.75
464.316	464.75
464.536	497.75
464.755	475.75
464.975	489.75
465.195	541.75
465.414	592.75
465.634	535.75
465.854	476.75
466.073	459.75
466.293	463.75
466.512	435.75
466.732	423.75
466.951	439.75
467.171	415.75
467.391	447.75
467.61	454.75
467.829	446.75
468.049	453.75
468.268	434.75
468.488	424.75
468.707	426.75
468.927	422.75
469.146	413.75
469.365	411.75
469.585	419.75
469.804	428.75
470.023	455.75
470.243	451.75
470.462	442.75
470.681	453.75
470.901	447.75
471.12	461.75
471.339	436.75
471.558	435.75
471.777	431.75
471.997	408.75
472.216	431.75
472.435	393.75
472.654	413.75
472.873	423.75
473.092	416.75
473.311	439.75
473.53	436.75
473.749	449.75
473.968	477.75
474.187	589.75
474.406	608.75
474.625	527.75
474.844	448.75
475.063	441.75
475.282	442.75
475.501	439.75
475.72	453.75
475.939	447.75
476.158	463.75
476.377	438.75
476.596	443.75
476.814	456.75
477.033	455.75
477.252	487.75
477.471	479.75
477.69	468.75
477.908	484.75
478.127	475.75
478.346	479.75
478.564	471.75
478.783	482.75
479.002	493.75
479.22	497.75
479.439	513.75
479.658	535.75
479.876	523.75
480.095	523.75
480.313	546.75
480.532	534.75
480.751	535.75
480.969	544.75
481.188	549.75
481.406	519.75
481.624	512.75
481.843	505.75
482.061	525.75
482.28	504.75
482.498	486.75
482.717	486.75
482.935	481.75
483.153	500.75
483.372	507.75
483.59	507.75
483.808	506.75
484.027	515.75
484.245	492.75
484.463	499.75
484.681	525.75
484.9	512.75
485.118	519.75
485.336	501.75
485.554	536.75
485.772	565.75
485.99	535.75
486.209	541.75
486.427	559.75
486.645	555.75
486.863	564.75
487.081	575.75
487.299	548.75
487.517	537.75
487.735	543.75
487.953	562.75
488.171	561.75
488.389	552.75
488.607	567.75
488.825	561.75
489.043	549.75
489.261	552.75
489.479	563.75
489.696	586.75
489.914	571.75
490.132	556.75
490.35	578.75
490.568	583.75
490.786	591.75
491.003	578.75
491.221	577.75
491.439	603.75
491.657	599.75
491.874	609.75
492.092	630.75
492.31	620.75
492.527	619.75
492.745	628.75
492.963	612.75
493.18	645.75
493.398	637.75
493.615	642.75
493.833	645.75
494.05	636.75
494.268	629.75
494.485	630.75
494.703	647.75
494.92	636.75
495.138	643.75
495.355	657.75
495.573	639.75
495.79	647.75
496.008	640.75
496.225	653.75
496.442	688.75
496.66	659.75
496.877	647.75
497.094	646.75
497.312	662.75
497.529	696.75
497.746	703.75
497.963	672.75
498.181	709.75
498.398	681.75
498.615	695.75
498.832	714.75
499.049	725.75
499.267	730.75
499.484	741.75
499.701	779.75
499.918	781.75
500.135	810.75
500.352	828.75
500.569	860.75
500.786	853.75
501.003	855.75
501.22	831.75
501.437	842.75
501.654	834.75
501.871	794.75
