Data from 1989.PennyLincolnUp.Lamp.En5.5.200Scan.071819.P2_HRD10591_17-25-22-973.txt Node
Date: Thu Jul 18 17:25:22 EDT 2019
User: cochatt
Spectrometer: HR+D1059
Trigger mode: 1
Integration Time (sec): 1.000000E-1
Scans to average: 1
Electric dark correction enabled: true
Nonlinearity correction enabled: false
Boxcar width: 0
XAxis mode: Wavelengths
Number of Pixels in Spectrum: 2048
>>>>>Begin Spectral Data<<<<<
223.165	-10.12
223.4	-10.12
223.635	-10.12
223.869	-25.12
224.104	-20.12
224.338	-20.12
224.573	-13.12
224.808	-4.12
225.042	-8.12
225.277	-9.12
225.511	-8.12
225.746	7.88
225.98	5.88
226.215	9.88
226.449	15.88
226.683	19.88
226.918	31.88
227.152	26.88
227.387	43.88
227.621	36.88
227.856	62.88
228.09	50.88
228.324	44.88
228.559	49.88
228.793	71.88
229.027	108.88
229.262	108.88
229.496	127.88
229.73	146.88
229.964	163.88
230.199	139.88
230.433	101.88
230.667	117.88
230.901	121.88
231.136	118.88
231.37	119.88
231.604	122.88
231.838	97.88
232.072	113.88
232.306	102.88
232.541	111.88
232.775	125.88
233.009	110.88
233.243	118.88
233.477	119.88
233.711	130.88
233.945	114.88
234.179	128.88
234.413	134.88
234.647	100.88
234.881	126.88
235.115	137.88
235.349	129.88
235.583	122.88
235.817	118.88
236.051	123.88
236.285	126.88
236.519	131.88
236.753	142.88
236.987	152.88
237.221	192.88
237.455	255.88
237.689	205.88
237.922	155.88
238.156	143.88
238.39	147.88
238.624	139.88
238.858	134.88
239.091	138.88
239.325	131.88
239.559	137.88
239.793	134.88
240.027	149.88
240.26	147.88
240.494	176.88
240.728	172.88
240.961	151.88
241.195	165.88
241.429	131.88
241.662	143.88
241.896	134.88
242.13	133.88
242.363	154.88
242.597	142.88
242.83	130.88
243.064	144.88
243.298	145.88
243.531	153.88
243.765	153.88
243.998	155.88
244.232	157.88
244.465	154.88
244.699	153.88
244.932	157.88
245.166	156.88
245.399	154.88
245.633	149.88
245.866	153.88
246.099	160.88
246.333	156.88
246.566	172.88
246.8	169.88
247.033	164.88
247.266	173.88
247.5	165.88
247.733	172.88
247.966	203.88
248.2	175.88
248.433	183.88
248.666	195.88
248.899	192.88
249.133	225.88
249.366	234.88
249.599	218.88
249.832	221.88
250.066	201.88
250.299	207.88
250.532	200.88
250.765	230.88
250.998	269.88
251.231	253.88
251.465	233.88
251.698	226.88
251.931	219.88
252.164	211.88
252.397	247.88
252.63	223.88
252.863	213.88
253.096	241.88
253.329	261.88
253.562	265.88
253.795	245.88
254.028	257.88
254.261	253.88
254.494	246.88
254.727	286.88
254.96	325.88
255.193	302.88
255.426	290.88
255.659	281.88
255.892	261.88
256.124	272.88
256.357	278.88
256.59	259.88
256.823	256.88
257.056	243.88
257.289	233.88
257.521	221.88
257.754	228.88
257.987	234.88
258.22	233.88
258.452	237.88
258.685	238.88
258.918	234.88
259.151	238.88
259.383	248.88
259.616	249.88
259.849	257.88
260.081	247.88
260.314	295.88
260.547	305.88
260.779	283.88
261.012	258.88
261.244	243.88
261.477	263.88
261.71	262.88
261.942	253.88
262.175	259.88
262.407	269.88
262.64	245.88
262.872	242.88
263.105	235.88
263.337	267.88
263.57	248.88
263.802	236.88
264.035	247.88
264.267	232.88
264.499	234.88
264.732	239.88
264.964	232.88
265.197	235.88
265.429	241.88
265.661	237.88
265.894	249.88
266.126	243.88
266.358	238.88
266.591	247.88
266.823	256.88
267.055	254.88
267.287	255.88
267.52	239.88
267.752	270.88
267.984	250.88
268.216	247.88
268.448	258.88
268.681	265.88
268.913	275.88
269.145	303.88
269.377	307.88
269.609	318.88
269.841	291.88
270.073	315.88
270.306	329.88
270.538	340.88
270.77	349.88
271.002	355.88
271.234	336.88
271.466	341.88
271.698	367.88
271.93	390.88
272.162	377.88
272.394	371.88
272.626	350.88
272.858	351.88
273.09	326.88
273.322	319.88
273.553	299.88
273.785	319.88
274.017	277.88
274.249	281.88
274.481	309.88
274.713	313.88
274.945	310.88
275.176	301.88
275.408	309.88
275.64	285.88
275.872	280.88
276.104	309.88
276.335	283.88
276.567	299.88
276.799	331.88
277.031	357.88
277.262	356.88
277.494	351.88
277.726	349.88
277.957	361.88
278.189	328.88
278.421	300.88
278.652	297.88
278.884	305.88
279.115	295.88
279.347	307.88
279.579	308.88
279.81	313.88
280.042	306.88
280.273	294.88
280.505	293.88
280.736	314.88
280.968	313.88
281.199	310.88
281.431	284.88
281.662	305.88
281.894	316.88
282.125	305.88
282.356	323.88
282.588	350.88
282.819	351.88
283.051	329.88
283.282	319.88
283.513	295.88
283.745	292.88
283.976	307.88
284.207	299.88
284.439	329.88
284.67	332.88
284.901	297.88
285.132	303.88
285.364	292.88
285.595	301.88
285.826	296.88
286.057	309.88
286.288	300.88
286.52	331.88
286.751	300.88
286.982	313.88
287.213	285.88
287.444	315.88
287.675	336.88
287.906	314.88
288.138	331.88
288.369	366.88
288.6	330.88
288.831	323.88
289.062	334.88
289.293	314.88
289.524	302.88
289.755	325.88
289.986	322.88
290.217	319.88
290.448	326.88
290.679	319.88
290.91	303.88
291.141	315.88
291.371	308.88
291.602	325.88
291.833	327.88
292.064	315.88
292.295	318.88
292.526	330.88
292.757	322.88
292.987	308.88
293.218	313.88
293.449	301.88
293.68	324.88
293.91	326.88
294.141	324.88
294.372	319.88
294.603	329.88
294.833	327.88
295.064	323.88
295.295	324.88
295.525	325.88
295.756	330.88
295.987	334.88
296.217	365.88
296.448	365.88
296.679	348.88
296.909	329.88
297.14	314.88
297.37	321.88
297.601	325.88
297.831	329.88
298.062	334.88
298.292	352.88
298.523	348.88
298.753	339.88
298.984	333.88
299.214	341.88
299.445	322.88
299.675	330.88
299.905	338.88
300.136	338.88
300.366	362.88
300.597	335.88
300.827	346.88
301.057	348.88
301.288	375.88
301.518	381.88
301.748	361.88
301.979	361.88
302.209	366.88
302.439	356.88
302.669	362.88
302.9	358.88
303.13	361.88
303.36	345.88
303.59	366.88
303.82	375.88
304.051	369.88
304.281	358.88
304.511	357.88
304.741	360.88
304.971	356.88
305.201	359.88
305.431	354.88
305.661	362.88
305.891	364.88
306.121	363.88
306.352	382.88
306.582	377.88
306.812	382.88
307.042	356.88
307.272	379.88
307.502	366.88
307.731	356.88
307.961	361.88
308.191	346.88
308.421	375.88
308.651	371.88
308.881	371.88
309.111	381.88
309.341	392.88
309.571	391.88
309.8	406.88
310.03	414.88
310.26	418.88
310.49	410.88
310.72	439.88
310.949	448.88
311.179	452.88
311.409	413.88
311.639	423.88
311.868	430.88
312.098	424.88
312.328	450.88
312.557	433.88
312.787	469.88
313.017	481.88
313.246	448.88
313.476	422.88
313.706	413.88
313.935	429.88
314.165	430.88
314.394	439.88
314.624	443.88
314.853	433.88
315.083	440.88
315.312	433.88
315.542	429.88
315.771	420.88
316.001	395.88
316.23	403.88
316.46	435.88
316.689	410.88
316.919	435.88
317.148	410.88
317.377	450.88
317.607	437.88
317.836	429.88
318.065	419.88
318.295	417.88
318.524	415.88
318.753	421.88
318.983	422.88
319.212	417.88
319.441	428.88
319.67	454.88
319.9	439.88
320.129	422.88
320.358	424.88
320.587	444.88
320.816	435.88
321.046	442.88
321.275	417.88
321.504	468.88
321.733	440.88
321.962	472.88
322.191	468.88
322.42	502.88
322.649	515.88
322.878	539.88
323.108	534.88
323.337	553.88
323.566	580.88
323.795	637.88
324.024	701.88
324.253	869.88
324.482	1237.88
324.71	1865.88
324.939	2724.88
325.168	2382.88
325.397	1185.88
325.626	809.88
325.855	638.88
326.084	606.88
326.313	593.88
326.542	607.88
326.77	638.88
326.999	775.88
327.228	1087.88
327.457	1725.88
327.686	2042.88
327.914	1349.88
328.143	886.88
328.372	730.88
328.6	706.88
328.829	663.88
329.058	683.88
329.287	703.88
329.515	655.88
329.744	607.88
329.972	587.88
330.201	606.88
330.43	646.88
330.658	694.88
330.887	710.88
331.115	717.88
331.344	628.88
331.572	589.88
331.801	568.88
332.03	571.88
332.258	525.88
332.486	525.88
332.715	471.88
332.943	479.88
333.172	506.88
333.4	515.88
333.629	525.88
333.857	543.88
334.085	538.88
334.314	558.88
334.542	586.88
334.771	600.88
334.999	573.88
335.227	510.88
335.455	489.88
335.684	515.88
335.912	500.88
336.14	482.88
336.369	483.88
336.597	512.88
336.825	497.88
337.053	471.88
337.281	478.88
337.51	457.88
337.738	475.88
337.966	488.88
338.194	499.88
338.422	485.88
338.65	489.88
338.878	477.88
339.106	452.88
339.334	472.88
339.562	451.88
339.79	446.88
340.018	449.88
340.246	467.88
340.474	488.88
340.702	485.88
340.93	455.88
341.158	444.88
341.386	477.88
341.614	484.88
341.842	471.88
342.07	443.88
342.298	452.88
342.526	449.88
342.754	457.88
342.981	467.88
343.209	423.88
343.437	460.88
343.665	458.88
343.893	472.88
344.12	463.88
344.348	446.88
344.576	458.88
344.804	486.88
345.031	486.88
345.259	497.88
345.487	484.88
345.714	463.88
345.942	470.88
346.17	463.88
346.397	473.88
346.625	459.88
346.853	463.88
347.08	456.88
347.308	476.88
347.535	466.88
347.763	485.88
347.99	473.88
348.218	439.88
348.445	476.88
348.673	470.88
348.9	459.88
349.128	441.88
349.355	438.88
349.583	406.88
349.81	427.88
350.037	440.88
350.265	439.88
350.492	444.88
350.72	426.88
350.947	441.88
351.174	461.88
351.402	466.88
351.629	463.88
351.856	457.88
352.083	463.88
352.311	480.88
352.538	488.88
352.765	464.88
352.992	498.88
353.22	450.88
353.447	451.88
353.674	426.88
353.901	429.88
354.128	422.88
354.355	420.88
354.583	406.88
354.81	408.88
355.037	422.88
355.264	415.88
355.491	416.88
355.718	408.88
355.945	413.88
356.172	424.88
356.399	403.88
356.626	397.88
356.853	402.88
357.08	407.88
357.307	415.88
357.534	425.88
357.761	427.88
357.988	400.88
358.215	418.88
358.441	406.88
358.668	404.88
358.895	422.88
359.122	405.88
359.349	428.88
359.576	442.88
359.802	473.88
360.029	517.88
360.256	536.88
360.483	478.88
360.709	453.88
360.936	433.88
361.163	434.88
361.39	463.88
361.616	458.88
361.843	438.88
362.07	439.88
362.296	442.88
362.523	441.88
362.749	420.88
362.976	439.88
363.203	432.88
363.429	420.88
363.656	416.88
363.882	422.88
364.109	407.88
364.335	399.88
364.562	407.88
364.788	412.88
365.015	430.88
365.241	444.88
365.468	416.88
365.694	409.88
365.92	451.88
366.147	401.88
366.373	414.88
366.599	406.88
366.826	406.88
367.052	405.88
367.278	403.88
367.505	412.88
367.731	416.88
367.957	403.88
368.184	403.88
368.41	419.88
368.636	416.88
368.862	414.88
369.089	412.88
369.315	430.88
369.541	428.88
369.767	399.88
369.993	405.88
370.219	419.88
370.445	410.88
370.672	410.88
370.898	407.88
371.124	414.88
371.35	410.88
371.576	410.88
371.802	394.88
372.028	419.88
372.254	394.88
372.48	420.88
372.706	403.88
372.932	399.88
373.158	397.88
373.384	422.88
373.61	398.88
373.835	410.88
374.061	421.88
374.287	398.88
374.513	418.88
374.739	430.88
374.965	404.88
375.191	428.88
375.416	428.88
375.642	422.88
375.868	419.88
376.094	402.88
376.319	383.88
376.545	407.88
376.771	392.88
376.997	394.88
377.222	403.88
377.448	379.88
377.674	383.88
377.899	406.88
378.125	411.88
378.35	399.88
378.576	397.88
378.802	379.88
379.027	403.88
379.253	394.88
379.478	385.88
379.704	393.88
379.929	409.88
380.155	399.88
380.38	390.88
380.606	409.88
380.831	428.88
381.057	420.88
381.282	389.88
381.507	387.88
381.733	395.88
381.958	410.88
382.184	409.88
382.409	395.88
382.634	401.88
382.86	421.88
383.085	412.88
383.31	414.88
383.535	426.88
383.761	413.88
383.986	420.88
384.211	411.88
384.436	411.88
384.662	425.88
384.887	415.88
385.112	410.88
385.337	436.88
385.562	389.88
385.787	420.88
386.013	422.88
386.238	461.88
386.463	433.88
386.688	435.88
386.913	446.88
387.138	419.88
387.363	435.88
387.588	432.88
387.813	418.88
388.038	430.88
388.263	413.88
388.488	441.88
388.713	414.88
388.938	429.88
389.163	423.88
389.387	431.88
389.612	419.88
389.837	438.88
390.062	419.88
390.287	411.88
390.512	414.88
390.736	429.88
390.961	437.88
391.186	429.88
391.411	415.88
391.636	429.88
391.86	423.88
392.085	419.88
392.31	433.88
392.534	427.88
392.759	411.88
392.984	436.88
393.208	421.88
393.433	433.88
393.658	429.88
393.882	413.88
394.107	431.88
394.331	437.88
394.556	422.88
394.78	430.88
395.005	436.88
395.229	428.88
395.454	442.88
395.678	448.88
395.903	433.88
396.127	471.88
396.352	491.88
396.576	461.88
396.801	454.88
397.025	450.88
397.249	433.88
397.474	434.88
397.698	462.88
397.922	500.88
398.147	484.88
398.371	488.88
398.595	486.88
398.82	468.88
399.044	480.88
399.268	492.88
399.492	505.88
399.717	534.88
399.941	559.88
400.165	571.88
400.389	602.88
400.613	527.88
400.837	505.88
401.062	509.88
401.286	497.88
401.51	482.88
401.734	458.88
401.958	459.88
402.182	475.88
402.406	501.88
402.63	503.88
402.854	498.88
403.078	488.88
403.302	489.88
403.526	520.88
403.75	489.88
403.974	488.88
404.198	486.88
404.422	506.88
404.645	525.88
404.869	523.88
405.093	537.88
405.317	569.88
405.541	621.88
405.765	563.88
405.988	531.88
406.212	535.88
406.436	555.88
406.66	573.88
406.883	555.88
407.107	573.88
407.331	614.88
407.555	675.88
407.778	675.88
408.002	602.88
408.226	553.88
408.449	558.88
408.673	549.88
408.896	588.88
409.12	629.88
409.344	604.88
409.567	519.88
409.791	537.88
410.014	508.88
410.238	493.88
410.461	493.88
410.685	514.88
410.908	510.88
411.132	541.88
411.355	563.88
411.578	573.88
411.802	515.88
412.025	496.88
412.249	500.88
412.472	523.88
412.695	567.88
412.919	563.88
413.142	517.88
413.365	503.88
413.589	479.88
413.812	485.88
414.035	461.88
414.258	472.88
414.482	483.88
414.705	474.88
414.928	462.88
415.151	450.88
415.374	438.88
415.597	445.88
415.821	462.88
416.044	457.88
416.267	469.88
416.49	473.88
416.713	462.88
416.936	473.88
417.159	466.88
417.382	479.88
417.605	471.88
417.828	504.88
418.051	512.88
418.274	499.88
418.497	478.88
418.72	468.88
418.943	461.88
419.166	491.88
419.389	470.88
419.611	483.88
419.834	478.88
420.057	499.88
420.28	509.88
420.503	500.88
420.726	491.88
420.948	517.88
421.171	561.88
421.394	564.88
421.617	530.88
421.839	503.88
422.062	488.88
422.285	512.88
422.507	561.88
422.73	648.88
422.953	630.88
423.175	572.88
423.398	527.88
423.621	530.88
423.843	545.88
424.066	541.88
424.288	545.88
424.511	543.88
424.733	625.88
424.956	689.88
425.178	674.88
425.401	664.88
425.623	682.88
425.846	591.88
426.068	555.88
426.291	525.88
426.513	542.88
426.735	542.88
426.958	587.88
427.18	656.88
427.402	825.88
427.625	917.88
427.847	807.88
428.069	671.88
428.292	611.88
428.514	557.88
428.736	537.88
428.958	530.88
429.181	494.88
429.403	507.88
429.625	499.88
429.847	575.88
430.069	616.88
430.292	627.88
430.514	546.88
430.736	489.88
430.958	488.88
431.18	482.88
431.402	480.88
431.624	453.88
431.846	459.88
432.068	472.88
432.29	462.88
432.512	460.88
432.734	475.88
432.956	471.88
433.178	501.88
433.4	481.88
433.622	458.88
433.844	466.88
434.066	477.88
434.287	465.88
434.509	471.88
434.731	456.88
434.953	477.88
435.175	469.88
435.397	522.88
435.618	550.88
435.84	601.88
436.062	672.88
436.284	764.88
436.505	642.88
436.727	560.88
436.949	513.88
437.17	485.88
437.392	505.88
437.614	518.88
437.835	549.88
438.057	662.88
438.278	771.88
438.5	742.88
438.721	865.88
438.943	805.88
439.165	635.88
439.386	588.88
439.608	569.88
439.829	581.88
440.05	594.88
440.272	661.88
440.493	611.88
440.715	565.88
440.936	532.88
441.158	512.88
441.379	500.88
441.6	499.88
441.822	526.88
442.043	575.88
442.264	670.88
442.486	729.88
442.707	625.88
442.928	545.88
443.149	570.88
443.371	589.88
443.592	645.88
443.813	719.88
444.034	801.88
444.255	637.88
444.476	581.88
444.698	557.88
444.919	515.88
445.14	616.88
445.361	603.88
445.582	582.88
445.803	654.88
446.024	779.88
446.245	778.88
446.466	717.88
446.687	605.88
446.908	558.88
447.129	510.88
447.35	489.88
447.571	509.88
447.792	490.88
448.013	513.88
448.234	513.88
448.455	575.88
448.675	697.88
448.896	785.88
449.117	694.88
449.338	666.88
449.559	754.88
449.779	857.88
450	713.88
450.221	568.88
450.442	524.88
450.662	508.88
450.883	474.88
451.104	547.88
451.324	497.88
451.545	485.88
451.766	471.88
451.986	467.88
452.207	471.88
452.428	467.88
452.648	436.88
452.869	461.88
453.089	480.88
453.31	467.88
453.53	434.88
453.751	458.88
453.971	465.88
454.192	472.88
454.412	440.88
454.633	433.88
454.853	452.88
455.073	445.88
455.294	464.88
455.514	581.88
455.734	527.88
455.955	447.88
456.175	448.88
456.395	417.88
456.616	412.88
456.836	419.88
457.056	405.88
457.276	395.88
457.497	416.88
457.717	417.88
457.937	435.88
458.157	425.88
458.377	451.88
458.598	488.88
458.818	519.88
459.038	630.88
459.258	622.88
459.478	538.88
459.698	469.88
459.918	441.88
460.138	452.88
460.358	465.88
460.578	446.88
460.798	453.88
461.018	453.88
461.238	476.88
461.458	445.88
461.678	458.88
461.898	458.88
462.118	450.88
462.338	461.88
462.558	465.88
462.777	476.88
462.997	470.88
463.217	489.88
463.437	510.88
463.657	485.88
463.876	486.88
464.096	489.88
464.316	482.88
464.536	511.88
464.755	484.88
464.975	486.88
465.195	548.88
465.414	628.88
465.634	539.88
465.854	504.88
466.073	461.88
466.293	443.88
466.512	428.88
466.732	444.88
466.951	442.88
467.171	451.88
467.391	450.88
467.61	461.88
467.829	455.88
468.049	471.88
468.268	474.88
468.488	447.88
468.707	443.88
468.927	426.88
469.146	440.88
469.365	437.88
469.585	451.88
469.804	430.88
470.023	455.88
470.243	469.88
470.462	469.88
470.681	486.88
470.901	476.88
471.12	445.88
471.339	440.88
471.558	427.88
471.777	461.88
471.997	435.88
472.216	462.88
472.435	508.88
472.654	469.88
472.873	479.88
473.092	457.88
473.311	476.88
473.53	447.88
473.749	470.88
473.968	524.88
474.187	647.88
474.406	651.88
474.625	519.88
474.844	485.88
475.063	475.88
475.282	453.88
475.501	454.88
475.72	457.88
475.939	462.88
476.158	495.88
476.377	470.88
476.596	462.88
476.814	500.88
477.033	477.88
477.252	482.88
477.471	489.88
477.69	496.88
477.908	496.88
478.127	492.88
478.346	503.88
478.564	494.88
478.783	498.88
479.002	507.88
479.22	538.88
479.439	517.88
479.658	561.88
479.876	557.88
480.095	552.88
480.313	589.88
480.532	591.88
480.751	545.88
480.969	574.88
481.188	631.88
481.406	637.88
481.624	588.88
481.843	541.88
482.061	543.88
482.28	548.88
482.498	552.88
482.717	525.88
482.935	518.88
483.153	528.88
483.372	533.88
483.59	553.88
483.808	544.88
484.027	545.88
484.245	545.88
484.463	514.88
484.681	531.88
484.9	561.88
485.118	533.88
485.336	553.88
485.554	549.88
485.772	563.88
485.99	546.88
486.209	538.88
486.427	543.88
486.645	571.88
486.863	600.88
487.081	615.88
487.299	586.88
487.517	570.88
487.735	557.88
487.953	558.88
488.171	609.88
488.389	563.88
488.607	587.88
488.825	591.88
489.043	595.88
489.261	576.88
489.479	556.88
489.696	577.88
489.914	596.88
490.132	589.88
490.35	584.88
490.568	645.88
490.786	630.88
491.003	624.88
491.221	635.88
491.439	655.88
491.657	645.88
491.874	659.88
492.092	661.88
492.31	655.88
492.527	659.88
492.745	668.88
492.963	673.88
493.18	661.88
493.398	701.88
493.615	678.88
493.833	677.88
494.05	695.88
494.268	669.88
494.485	665.88
494.703	669.88
494.92	690.88
495.138	690.88
495.355	686.88
495.573	695.88
495.79	683.88
496.008	719.88
496.225	687.88
496.442	680.88
496.66	691.88
496.877	690.88
497.094	659.88
497.312	710.88
497.529	685.88
497.746	697.88
497.963	710.88
498.181	750.88
498.398	732.88
498.615	751.88
498.832	746.88
499.049	749.88
499.267	789.88
499.484	801.88
499.701	807.88
499.918	809.88
500.135	870.88
500.352	869.88
500.569	890.88
500.786	892.88
501.003	873.88
501.22	888.88
501.437	858.88
501.654	862.88
501.871	821.88
