Data from 1989.PennyLincolnUp.Lamp.En5.5.200Scan.071819.P2_HRD10591_17-23-37-974.txt Node
Date: Thu Jul 18 17:23:37 EDT 2019
User: cochatt
Spectrometer: HR+D1059
Trigger mode: 1
Integration Time (sec): 1.000000E-1
Scans to average: 1
Electric dark correction enabled: true
Nonlinearity correction enabled: false
Boxcar width: 0
XAxis mode: Wavelengths
Number of Pixels in Spectrum: 2048
>>>>>Begin Spectral Data<<<<<
223.165	-15.06
223.4	-15.06
223.635	-15.06
223.869	-20.06
224.104	-14.06
224.338	-9.06
224.573	-12.06
224.808	-23.06
225.042	-19.06
225.277	-9.06
225.511	-12.06
225.746	2.94
225.98	2.94
226.215	4.94
226.449	36.94
226.683	21.94
226.918	25.94
227.152	37.94
227.387	19.94
227.621	35.94
227.856	30.94
228.09	34.94
228.324	53.94
228.559	48.94
228.793	62.94
229.027	94.94
229.262	107.94
229.496	100.94
229.73	132.94
229.964	156.94
230.199	114.94
230.433	104.94
230.667	112.94
230.901	112.94
231.136	111.94
231.37	110.94
231.604	106.94
231.838	102.94
232.072	105.94
232.306	113.94
232.541	110.94
232.775	104.94
233.009	110.94
233.243	107.94
233.477	110.94
233.711	120.94
233.945	113.94
234.179	120.94
234.413	109.94
234.647	116.94
234.881	120.94
235.115	103.94
235.349	118.94
235.583	118.94
235.817	114.94
236.051	131.94
236.285	127.94
236.519	140.94
236.753	146.94
236.987	146.94
237.221	189.94
237.455	217.94
237.689	183.94
237.922	139.94
238.156	136.94
238.39	144.94
238.624	117.94
238.858	122.94
239.091	128.94
239.325	126.94
239.559	135.94
239.793	135.94
240.027	116.94
240.26	144.94
240.494	166.94
240.728	143.94
240.961	145.94
241.195	137.94
241.429	145.94
241.662	128.94
241.896	135.94
242.13	122.94
242.363	126.94
242.597	136.94
242.83	137.94
243.064	138.94
243.298	123.94
243.531	126.94
243.765	130.94
243.998	144.94
244.232	135.94
244.465	148.94
244.699	144.94
244.932	140.94
245.166	141.94
245.399	138.94
245.633	152.94
245.866	155.94
246.099	149.94
246.333	134.94
246.566	148.94
246.8	146.94
247.033	159.94
247.266	153.94
247.5	176.94
247.733	186.94
247.966	174.94
248.2	170.94
248.433	171.94
248.666	164.94
248.899	182.94
249.133	205.94
249.366	200.94
249.599	191.94
249.832	187.94
250.066	196.94
250.299	174.94
250.532	207.94
250.765	198.94
250.998	208.94
251.231	241.94
251.465	216.94
251.698	198.94
251.931	203.94
252.164	199.94
252.397	210.94
252.63	211.94
252.863	230.94
253.096	231.94
253.329	232.94
253.562	239.94
253.795	225.94
254.028	221.94
254.261	215.94
254.494	215.94
254.727	274.94
254.96	294.94
255.193	274.94
255.426	243.94
255.659	227.94
255.892	243.94
256.124	230.94
256.357	230.94
256.59	217.94
256.823	226.94
257.056	215.94
257.289	228.94
257.521	214.94
257.754	226.94
257.987	223.94
258.22	224.94
258.452	210.94
258.685	222.94
258.918	216.94
259.151	232.94
259.383	232.94
259.616	227.94
259.849	231.94
260.081	255.94
260.314	255.94
260.547	271.94
260.779	254.94
261.012	254.94
261.244	241.94
261.477	234.94
261.71	219.94
261.942	220.94
262.175	244.94
262.407	235.94
262.64	219.94
262.872	222.94
263.105	231.94
263.337	227.94
263.57	231.94
263.802	215.94
264.035	234.94
264.267	218.94
264.499	228.94
264.732	228.94
264.964	204.94
265.197	203.94
265.429	220.94
265.661	207.94
265.894	224.94
266.126	228.94
266.358	229.94
266.591	238.94
266.823	239.94
267.055	223.94
267.287	224.94
267.52	223.94
267.752	233.94
267.984	227.94
268.216	232.94
268.448	242.94
268.681	243.94
268.913	235.94
269.145	256.94
269.377	297.94
269.609	286.94
269.841	247.94
270.073	280.94
270.306	301.94
270.538	313.94
270.77	308.94
271.002	305.94
271.234	305.94
271.466	305.94
271.698	322.94
271.93	332.94
272.162	340.94
272.394	316.94
272.626	313.94
272.858	303.94
273.09	283.94
273.322	274.94
273.553	260.94
273.785	264.94
274.017	274.94
274.249	260.94
274.481	277.94
274.713	267.94
274.945	278.94
275.176	280.94
275.408	274.94
275.64	279.94
275.872	265.94
276.104	279.94
276.335	276.94
276.567	278.94
276.799	297.94
277.031	304.94
277.262	330.94
277.494	321.94
277.726	309.94
277.957	317.94
278.189	296.94
278.421	278.94
278.652	283.94
278.884	267.94
279.115	263.94
279.347	262.94
279.579	280.94
279.81	279.94
280.042	287.94
280.273	266.94
280.505	267.94
280.736	274.94
280.968	277.94
281.199	275.94
281.431	270.94
281.662	275.94
281.894	280.94
282.125	273.94
282.356	308.94
282.588	308.94
282.819	322.94
283.051	268.94
283.282	275.94
283.513	306.94
283.745	297.94
283.976	281.94
284.207	289.94
284.439	306.94
284.67	290.94
284.901	276.94
285.132	291.94
285.364	275.94
285.595	282.94
285.826	279.94
286.057	282.94
286.288	277.94
286.52	283.94
286.751	290.94
286.982	275.94
287.213	271.94
287.444	306.94
287.675	293.94
287.906	290.94
288.138	310.94
288.369	305.94
288.6	318.94
288.831	296.94
289.062	302.94
289.293	321.94
289.524	303.94
289.755	298.94
289.986	291.94
290.217	276.94
290.448	276.94
290.679	313.94
290.91	277.94
291.141	294.94
291.371	276.94
291.602	297.94
291.833	285.94
292.064	284.94
292.295	292.94
292.526	287.94
292.757	292.94
292.987	295.94
293.218	287.94
293.449	295.94
293.68	295.94
293.91	298.94
294.141	288.94
294.372	288.94
294.603	296.94
294.833	309.94
295.064	308.94
295.295	293.94
295.525	316.94
295.756	294.94
295.987	306.94
296.217	338.94
296.448	325.94
296.679	308.94
296.909	311.94
297.14	284.94
297.37	311.94
297.601	299.94
297.831	312.94
298.062	315.94
298.292	304.94
298.523	323.94
298.753	310.94
298.984	318.94
299.214	307.94
299.445	324.94
299.675	299.94
299.905	298.94
300.136	333.94
300.366	315.94
300.597	322.94
300.827	310.94
301.057	327.94
301.288	339.94
301.518	328.94
301.748	343.94
301.979	329.94
302.209	331.94
302.439	333.94
302.669	324.94
302.9	329.94
303.13	324.94
303.36	333.94
303.59	351.94
303.82	349.94
304.051	327.94
304.281	350.94
304.511	339.94
304.741	328.94
304.971	319.94
305.201	336.94
305.431	331.94
305.661	329.94
305.891	327.94
306.121	337.94
306.352	345.94
306.582	343.94
306.812	322.94
307.042	337.94
307.272	328.94
307.502	327.94
307.731	331.94
307.961	334.94
308.191	336.94
308.421	342.94
308.651	348.94
308.881	331.94
309.111	353.94
309.341	342.94
309.571	364.94
309.8	344.94
310.03	378.94
310.26	367.94
310.49	375.94
310.72	375.94
310.949	385.94
311.179	412.94
311.409	408.94
311.639	378.94
311.868	375.94
312.098	378.94
312.328	392.94
312.557	400.94
312.787	408.94
313.017	404.94
313.246	372.94
313.476	371.94
313.706	382.94
313.935	402.94
314.165	403.94
314.394	411.94
314.624	400.94
314.853	387.94
315.083	383.94
315.312	393.94
315.542	384.94
315.771	373.94
316.001	398.94
316.23	383.94
316.46	369.94
316.689	375.94
316.919	392.94
317.148	386.94
317.377	410.94
317.607	395.94
317.836	390.94
318.065	391.94
318.295	400.94
318.524	395.94
318.753	372.94
318.983	374.94
319.212	403.94
319.441	398.94
319.67	386.94
319.9	388.94
320.129	380.94
320.358	398.94
320.587	389.94
320.816	407.94
321.046	402.94
321.275	401.94
321.504	404.94
321.733	421.94
321.962	413.94
322.191	438.94
322.42	437.94
322.649	442.94
322.878	448.94
323.108	456.94
323.337	498.94
323.566	507.94
323.795	514.94
324.024	571.94
324.253	722.94
324.482	994.94
324.71	1511.94
324.939	2171.94
325.168	1914.94
325.397	991.94
325.626	668.94
325.855	560.94
326.084	536.94
326.313	497.94
326.542	519.94
326.77	525.94
326.999	634.94
327.228	899.94
327.457	1336.94
327.686	1679.94
327.914	1108.94
328.143	702.94
328.372	631.94
328.6	576.94
328.829	558.94
329.058	585.94
329.287	596.94
329.515	520.94
329.744	506.94
329.972	492.94
330.201	516.94
330.43	535.94
330.658	552.94
330.887	592.94
331.115	599.94
331.344	520.94
331.572	501.94
331.801	489.94
332.03	485.94
332.258	465.94
332.486	454.94
332.715	456.94
332.943	440.94
333.172	447.94
333.4	434.94
333.629	432.94
333.857	450.94
334.085	456.94
334.314	452.94
334.542	449.94
334.771	456.94
334.999	440.94
335.227	445.94
335.455	440.94
335.684	426.94
335.912	438.94
336.14	439.94
336.369	433.94
336.597	450.94
336.825	460.94
337.053	451.94
337.281	431.94
337.51	437.94
337.738	437.94
337.966	439.94
338.194	460.94
338.422	456.94
338.65	411.94
338.878	423.94
339.106	406.94
339.334	425.94
339.562	407.94
339.79	444.94
340.018	437.94
340.246	441.94
340.474	422.94
340.702	435.94
340.93	427.94
341.158	427.94
341.386	420.94
341.614	438.94
341.842	435.94
342.07	416.94
342.298	435.94
342.526	414.94
342.754	406.94
342.981	404.94
343.209	400.94
343.437	415.94
343.665	418.94
343.893	431.94
344.12	449.94
344.348	432.94
344.576	424.94
344.804	432.94
345.031	448.94
345.259	456.94
345.487	442.94
345.714	407.94
345.942	412.94
346.17	401.94
346.397	387.94
346.625	402.94
346.853	394.94
347.08	380.94
347.308	420.94
347.535	419.94
347.763	424.94
347.99	425.94
348.218	438.94
348.445	426.94
348.673	415.94
348.9	412.94
349.128	401.94
349.355	401.94
349.583	404.94
349.81	407.94
350.037	390.94
350.265	384.94
350.492	401.94
350.72	400.94
350.947	387.94
351.174	409.94
351.402	414.94
351.629	422.94
351.856	400.94
352.083	427.94
352.311	432.94
352.538	410.94
352.765	428.94
352.992	410.94
353.22	415.94
353.447	377.94
353.674	404.94
353.901	400.94
354.128	388.94
354.355	392.94
354.583	378.94
354.81	394.94
355.037	365.94
355.264	372.94
355.491	388.94
355.718	379.94
355.945	389.94
356.172	383.94
356.399	376.94
356.626	394.94
356.853	368.94
357.08	371.94
357.307	395.94
357.534	372.94
357.761	373.94
357.988	382.94
358.215	367.94
358.441	366.94
358.668	375.94
358.895	387.94
359.122	363.94
359.349	386.94
359.576	404.94
359.802	415.94
360.029	441.94
360.256	450.94
360.483	436.94
360.709	398.94
360.936	427.94
361.163	408.94
361.39	400.94
361.616	424.94
361.843	401.94
362.07	391.94
362.296	443.94
362.523	418.94
362.749	403.94
362.976	399.94
363.203	404.94
363.429	403.94
363.656	403.94
363.882	383.94
364.109	376.94
364.335	364.94
364.562	376.94
364.788	384.94
365.015	388.94
365.241	394.94
365.468	403.94
365.694	376.94
365.92	388.94
366.147	394.94
366.373	365.94
366.599	373.94
366.826	368.94
367.052	373.94
367.278	371.94
367.505	370.94
367.731	382.94
367.957	382.94
368.184	381.94
368.41	406.94
368.636	401.94
368.862	402.94
369.089	374.94
369.315	374.94
369.541	395.94
369.767	375.94
369.993	372.94
370.219	376.94
370.445	382.94
370.672	371.94
370.898	374.94
371.124	370.94
371.35	373.94
371.576	376.94
371.802	377.94
372.028	372.94
372.254	358.94
372.48	374.94
372.706	363.94
372.932	376.94
373.158	377.94
373.384	397.94
373.61	374.94
373.835	383.94
374.061	384.94
374.287	404.94
374.513	378.94
374.739	385.94
374.965	377.94
375.191	389.94
375.416	382.94
375.642	377.94
375.868	372.94
376.094	379.94
376.319	388.94
376.545	376.94
376.771	358.94
376.997	376.94
377.222	371.94
377.448	371.94
377.674	377.94
377.899	359.94
378.125	355.94
378.35	367.94
378.576	367.94
378.802	351.94
379.027	376.94
379.253	367.94
379.478	356.94
379.704	386.94
379.929	368.94
380.155	372.94
380.38	373.94
380.606	375.94
380.831	379.94
381.057	378.94
381.282	376.94
381.507	371.94
381.733	364.94
381.958	386.94
382.184	392.94
382.409	378.94
382.634	367.94
382.86	388.94
383.085	362.94
383.31	373.94
383.535	370.94
383.761	392.94
383.986	385.94
384.211	383.94
384.436	399.94
384.662	370.94
384.887	394.94
385.112	379.94
385.337	400.94
385.562	409.94
385.787	401.94
386.013	420.94
386.238	403.94
386.463	412.94
386.688	404.94
386.913	410.94
387.138	372.94
387.363	402.94
387.588	406.94
387.813	424.94
388.038	400.94
388.263	421.94
388.488	402.94
388.713	413.94
388.938	383.94
389.163	417.94
389.387	414.94
389.612	402.94
389.837	402.94
390.062	399.94
390.287	396.94
390.512	411.94
390.736	405.94
390.961	411.94
391.186	411.94
391.411	391.94
391.636	403.94
391.86	398.94
392.085	376.94
392.31	401.94
392.534	402.94
392.759	428.94
392.984	406.94
393.208	405.94
393.433	387.94
393.658	410.94
393.882	402.94
394.107	415.94
394.331	406.94
394.556	384.94
394.78	393.94
395.005	405.94
395.229	404.94
395.454	397.94
395.678	403.94
395.903	422.94
396.127	426.94
396.352	437.94
396.576	418.94
396.801	402.94
397.025	411.94
397.249	421.94
397.474	410.94
397.698	409.94
397.922	435.94
398.147	448.94
398.371	429.94
398.595	440.94
398.82	437.94
399.044	458.94
399.268	473.94
399.492	486.94
399.717	489.94
399.941	525.94
400.165	536.94
400.389	565.94
400.613	528.94
400.837	462.94
401.062	476.94
401.286	464.94
401.51	457.94
401.734	454.94
401.958	446.94
402.182	444.94
402.406	478.94
402.63	460.94
402.854	472.94
403.078	463.94
403.302	446.94
403.526	475.94
403.75	472.94
403.974	477.94
404.198	456.94
404.422	457.94
404.645	452.94
404.869	463.94
405.093	496.94
405.317	488.94
405.541	537.94
405.765	484.94
405.988	459.94
406.212	495.94
406.436	511.94
406.66	531.94
406.883	510.94
407.107	527.94
407.331	558.94
407.555	625.94
407.778	623.94
408.002	552.94
408.226	520.94
408.449	503.94
408.673	518.94
408.896	530.94
409.12	577.94
409.344	534.94
409.567	479.94
409.791	477.94
410.014	458.94
410.238	442.94
410.461	485.94
410.685	483.94
410.908	486.94
411.132	500.94
411.355	545.94
411.578	513.94
411.802	468.94
412.025	457.94
412.249	467.94
412.472	458.94
412.695	489.94
412.919	450.94
413.142	446.94
413.365	440.94
413.589	449.94
413.812	422.94
414.035	430.94
414.258	432.94
414.482	445.94
414.705	437.94
414.928	445.94
415.151	438.94
415.374	446.94
415.597	436.94
415.821	422.94
416.044	412.94
416.267	441.94
416.49	436.94
416.713	436.94
416.936	409.94
417.159	447.94
417.382	466.94
417.605	452.94
417.828	447.94
418.051	462.94
418.274	446.94
418.497	449.94
418.72	411.94
418.943	434.94
419.166	447.94
419.389	471.94
419.611	463.94
419.834	451.94
420.057	472.94
420.28	448.94
420.503	468.94
420.726	454.94
420.948	467.94
421.171	502.94
421.394	538.94
421.617	471.94
421.839	470.94
422.062	461.94
422.285	460.94
422.507	510.94
422.73	597.94
422.953	576.94
423.175	527.94
423.398	470.94
423.621	490.94
423.843	518.94
424.066	507.94
424.288	487.94
424.511	526.94
424.733	566.94
424.956	623.94
425.178	636.94
425.401	620.94
425.623	659.94
425.846	550.94
426.068	529.94
426.291	500.94
426.513	520.94
426.735	521.94
426.958	560.94
427.18	628.94
427.402	760.94
427.625	842.94
427.847	720.94
428.069	603.94
428.292	537.94
428.514	483.94
428.736	498.94
428.958	472.94
429.181	461.94
429.403	449.94
429.625	474.94
429.847	502.94
430.069	556.94
430.292	569.94
430.514	477.94
430.736	476.94
430.958	443.94
431.18	450.94
431.402	434.94
431.624	436.94
431.846	420.94
432.068	442.94
432.29	430.94
432.512	418.94
432.734	449.94
432.956	431.94
433.178	446.94
433.4	443.94
433.622	453.94
433.844	438.94
434.066	437.94
434.287	430.94
434.509	434.94
434.731	439.94
434.953	443.94
435.175	456.94
435.397	488.94
435.618	512.94
435.84	555.94
436.062	639.94
436.284	676.94
436.505	583.94
436.727	514.94
436.949	483.94
437.17	472.94
437.392	479.94
437.614	488.94
437.835	505.94
438.057	607.94
438.278	699.94
438.5	678.94
438.721	720.94
438.943	744.94
439.165	589.94
439.386	528.94
439.608	517.94
439.829	490.94
440.05	523.94
440.272	585.94
440.493	550.94
440.715	492.94
440.936	474.94
441.158	465.94
441.379	459.94
441.6	472.94
441.822	479.94
442.043	516.94
442.264	622.94
442.486	636.94
442.707	568.94
442.928	519.94
443.149	514.94
443.371	534.94
443.592	595.94
443.813	673.94
444.034	708.94
444.255	585.94
444.476	524.94
444.698	509.94
444.919	511.94
445.14	594.94
445.361	554.94
445.582	550.94
445.803	616.94
446.024	689.94
446.245	710.94
446.466	646.94
446.687	560.94
446.908	513.94
447.129	488.94
447.35	481.94
447.571	466.94
447.792	472.94
448.013	457.94
448.234	475.94
448.455	528.94
448.675	619.94
448.896	752.94
449.117	648.94
449.338	596.94
449.559	684.94
449.779	785.94
450	629.94
450.221	539.94
450.442	476.94
450.662	457.94
450.883	459.94
451.104	487.94
451.324	472.94
451.545	441.94
451.766	417.94
451.986	408.94
452.207	419.94
452.428	423.94
452.648	401.94
452.869	418.94
453.089	412.94
453.31	436.94
453.53	418.94
453.751	421.94
453.971	427.94
454.192	428.94
454.412	425.94
454.633	394.94
454.853	411.94
455.073	398.94
455.294	426.94
455.514	501.94
455.734	478.94
455.955	411.94
456.175	410.94
456.395	390.94
456.616	393.94
456.836	384.94
457.056	395.94
457.276	379.94
457.497	393.94
457.717	390.94
457.937	400.94
458.157	390.94
458.377	387.94
458.598	423.94
458.818	472.94
459.038	542.94
459.258	562.94
459.478	480.94
459.698	449.94
459.918	437.94
460.138	424.94
460.358	415.94
460.578	405.94
460.798	422.94
461.018	448.94
461.238	441.94
461.458	434.94
461.678	413.94
461.898	426.94
462.118	426.94
462.338	438.94
462.558	436.94
462.777	443.94
462.997	449.94
463.217	473.94
463.437	486.94
463.657	479.94
463.876	426.94
464.096	469.94
464.316	446.94
464.536	454.94
464.755	460.94
464.975	462.94
465.195	490.94
465.414	562.94
465.634	490.94
465.854	462.94
466.073	454.94
466.293	444.94
466.512	414.94
466.732	419.94
466.951	427.94
467.171	410.94
467.391	423.94
467.61	443.94
467.829	447.94
468.049	405.94
468.268	415.94
468.488	399.94
468.707	412.94
468.927	398.94
469.146	394.94
469.365	397.94
469.585	408.94
469.804	402.94
470.023	431.94
470.243	424.94
470.462	430.94
470.681	451.94
470.901	432.94
471.12	430.94
471.339	417.94
471.558	430.94
471.777	411.94
471.997	410.94
472.216	413.94
472.435	410.94
472.654	400.94
472.873	408.94
473.092	417.94
473.311	408.94
473.53	416.94
473.749	436.94
473.968	480.94
474.187	582.94
474.406	604.94
474.625	489.94
474.844	447.94
475.063	428.94
475.282	413.94
475.501	440.94
475.72	449.94
475.939	446.94
476.158	448.94
476.377	423.94
476.596	434.94
476.814	453.94
477.033	446.94
477.252	425.94
477.471	457.94
477.69	434.94
477.908	451.94
478.127	466.94
478.346	459.94
478.564	469.94
478.783	459.94
479.002	479.94
479.22	493.94
479.439	505.94
479.658	512.94
479.876	489.94
480.095	490.94
480.313	502.94
480.532	532.94
480.751	485.94
480.969	516.94
481.188	501.94
481.406	528.94
481.624	497.94
481.843	504.94
482.061	475.94
482.28	472.94
482.498	498.94
482.717	491.94
482.935	470.94
483.153	500.94
483.372	496.94
483.59	490.94
483.808	498.94
484.027	512.94
484.245	516.94
484.463	508.94
484.681	495.94
484.9	506.94
485.118	492.94
485.336	501.94
485.554	521.94
485.772	534.94
485.99	506.94
486.209	496.94
486.427	508.94
486.645	524.94
486.863	522.94
487.081	546.94
487.299	530.94
487.517	519.94
487.735	524.94
487.953	527.94
488.171	522.94
488.389	548.94
488.607	554.94
488.825	528.94
489.043	519.94
489.261	527.94
489.479	537.94
489.696	535.94
489.914	540.94
490.132	544.94
490.35	572.94
490.568	556.94
490.786	575.94
491.003	565.94
491.221	549.94
491.439	580.94
491.657	606.94
491.874	595.94
492.092	598.94
492.31	611.94
492.527	596.94
492.745	585.94
492.963	600.94
493.18	618.94
493.398	621.94
493.615	630.94
493.833	627.94
494.05	597.94
494.268	611.94
494.485	633.94
494.703	609.94
494.92	618.94
495.138	602.94
495.355	626.94
495.573	607.94
495.79	650.94
496.008	610.94
496.225	638.94
496.442	626.94
496.66	627.94
496.877	618.94
497.094	630.94
497.312	634.94
497.529	627.94
497.746	627.94
497.963	666.94
498.181	674.94
498.398	695.94
498.615	702.94
498.832	682.94
499.049	696.94
499.267	706.94
499.484	736.94
499.701	767.94
499.918	764.94
500.135	793.94
500.352	804.94
500.569	825.94
500.786	834.94
501.003	837.94
501.22	825.94
501.437	794.94
501.654	793.94
501.871	777.94
