Data from 1989.PennyLincolnUp.Lamp.En5.5.200Scan.071819.P2_HRD10591_17-25-16-974.txt Node
Date: Thu Jul 18 17:25:16 EDT 2019
User: cochatt
Spectrometer: HR+D1059
Trigger mode: 1
Integration Time (sec): 1.000000E-1
Scans to average: 1
Electric dark correction enabled: true
Nonlinearity correction enabled: false
Boxcar width: 0
XAxis mode: Wavelengths
Number of Pixels in Spectrum: 2048
>>>>>Begin Spectral Data<<<<<
223.165	-8.19
223.4	-8.19
223.635	-8.19
223.869	-12.19
224.104	-16.19
224.338	-9.19
224.573	-25.19
224.808	-22.19
225.042	-16.19
225.277	-4.19
225.511	-1.19
225.746	8.81
225.98	6.81
226.215	5.81
226.449	8.81
226.683	23.81
226.918	33.81
227.152	26.81
227.387	39.81
227.621	51.81
227.856	49.81
228.09	41.81
228.324	57.81
228.559	58.81
228.793	68.81
229.027	114.81
229.262	123.81
229.496	119.81
229.73	133.81
229.964	185.81
230.199	146.81
230.433	123.81
230.667	123.81
230.901	118.81
231.136	121.81
231.37	118.81
231.604	124.81
231.838	117.81
232.072	116.81
232.306	122.81
232.541	123.81
232.775	130.81
233.009	117.81
233.243	118.81
233.477	128.81
233.711	108.81
233.945	116.81
234.179	111.81
234.413	122.81
234.647	123.81
234.881	114.81
235.115	131.81
235.349	121.81
235.583	131.81
235.817	116.81
236.051	134.81
236.285	149.81
236.519	135.81
236.753	138.81
236.987	164.81
237.221	201.81
237.455	274.81
237.689	226.81
237.922	162.81
238.156	139.81
238.39	138.81
238.624	138.81
238.858	133.81
239.091	135.81
239.325	131.81
239.559	137.81
239.793	128.81
240.027	123.81
240.26	153.81
240.494	167.81
240.728	181.81
240.961	153.81
241.195	162.81
241.429	162.81
241.662	148.81
241.896	147.81
242.13	145.81
242.363	141.81
242.597	143.81
242.83	137.81
243.064	142.81
243.298	147.81
243.531	157.81
243.765	154.81
243.998	161.81
244.232	150.81
244.465	155.81
244.699	158.81
244.932	164.81
245.166	166.81
245.399	163.81
245.633	145.81
245.866	173.81
246.099	153.81
246.333	157.81
246.566	163.81
246.8	158.81
247.033	165.81
247.266	164.81
247.5	165.81
247.733	168.81
247.966	178.81
248.2	190.81
248.433	193.81
248.666	197.81
248.899	197.81
249.133	227.81
249.366	238.81
249.599	242.81
249.832	206.81
250.066	202.81
250.299	195.81
250.532	213.81
250.765	214.81
250.998	258.81
251.231	238.81
251.465	229.81
251.698	233.81
251.931	226.81
252.164	221.81
252.397	216.81
252.63	217.81
252.863	225.81
253.096	244.81
253.329	255.81
253.562	259.81
253.795	246.81
254.028	242.81
254.261	256.81
254.494	259.81
254.727	297.81
254.96	323.81
255.193	311.81
255.426	280.81
255.659	277.81
255.892	258.81
256.124	275.81
256.357	282.81
256.59	266.81
256.823	253.81
257.056	252.81
257.289	236.81
257.521	247.81
257.754	238.81
257.987	241.81
258.22	243.81
258.452	246.81
258.685	226.81
258.918	238.81
259.151	246.81
259.383	245.81
259.616	251.81
259.849	269.81
260.081	269.81
260.314	289.81
260.547	293.81
260.779	290.81
261.012	270.81
261.244	249.81
261.477	271.81
261.71	268.81
261.942	263.81
262.175	266.81
262.407	271.81
262.64	269.81
262.872	246.81
263.105	242.81
263.337	230.81
263.57	238.81
263.802	248.81
264.035	238.81
264.267	232.81
264.499	237.81
264.732	220.81
264.964	222.81
265.197	235.81
265.429	238.81
265.661	231.81
265.894	246.81
266.126	233.81
266.358	222.81
266.591	227.81
266.823	238.81
267.055	268.81
267.287	269.81
267.52	266.81
267.752	251.81
267.984	246.81
268.216	246.81
268.448	283.81
268.681	273.81
268.913	283.81
269.145	301.81
269.377	315.81
269.609	307.81
269.841	318.81
270.073	314.81
270.306	330.81
270.538	373.81
270.77	351.81
271.002	356.81
271.234	333.81
271.466	356.81
271.698	365.81
271.93	370.81
272.162	353.81
272.394	373.81
272.626	342.81
272.858	349.81
273.09	337.81
273.322	311.81
273.553	305.81
273.785	318.81
274.017	305.81
274.249	301.81
274.481	311.81
274.713	319.81
274.945	322.81
275.176	306.81
275.408	301.81
275.64	296.81
275.872	293.81
276.104	303.81
276.335	309.81
276.567	318.81
276.799	334.81
277.031	339.81
277.262	372.81
277.494	385.81
277.726	354.81
277.957	355.81
278.189	302.81
278.421	318.81
278.652	309.81
278.884	310.81
279.115	298.81
279.347	299.81
279.579	307.81
279.81	311.81
280.042	299.81
280.273	288.81
280.505	291.81
280.736	295.81
280.968	302.81
281.199	307.81
281.431	282.81
281.662	291.81
281.894	318.81
282.125	287.81
282.356	298.81
282.588	350.81
282.819	326.81
283.051	301.81
283.282	297.81
283.513	303.81
283.745	310.81
283.976	309.81
284.207	317.81
284.439	304.81
284.67	310.81
284.901	318.81
285.132	312.81
285.364	281.81
285.595	313.81
285.826	296.81
286.057	313.81
286.288	310.81
286.52	307.81
286.751	322.81
286.982	318.81
287.213	311.81
287.444	308.81
287.675	308.81
287.906	316.81
288.138	335.81
288.369	346.81
288.6	348.81
288.831	345.81
289.062	318.81
289.293	337.81
289.524	321.81
289.755	310.81
289.986	341.81
290.217	318.81
290.448	297.81
290.679	302.81
290.91	322.81
291.141	333.81
291.371	316.81
291.602	332.81
291.833	320.81
292.064	322.81
292.295	330.81
292.526	315.81
292.757	315.81
292.987	316.81
293.218	339.81
293.449	312.81
293.68	318.81
293.91	322.81
294.141	319.81
294.372	307.81
294.603	300.81
294.833	309.81
295.064	335.81
295.295	317.81
295.525	336.81
295.756	325.81
295.987	335.81
296.217	351.81
296.448	378.81
296.679	342.81
296.909	319.81
297.14	334.81
297.37	323.81
297.601	319.81
297.831	349.81
298.062	321.81
298.292	353.81
298.523	335.81
298.753	334.81
298.984	319.81
299.214	357.81
299.445	341.81
299.675	369.81
299.905	349.81
300.136	343.81
300.366	343.81
300.597	344.81
300.827	345.81
301.057	354.81
301.288	363.81
301.518	359.81
301.748	355.81
301.979	362.81
302.209	365.81
302.439	328.81
302.669	373.81
302.9	369.81
303.13	364.81
303.36	353.81
303.59	356.81
303.82	398.81
304.051	385.81
304.281	356.81
304.511	343.81
304.741	357.81
304.971	359.81
305.201	361.81
305.431	373.81
305.661	367.81
305.891	358.81
306.121	357.81
306.352	366.81
306.582	360.81
306.812	387.81
307.042	366.81
307.272	373.81
307.502	359.81
307.731	358.81
307.961	373.81
308.191	358.81
308.421	348.81
308.651	371.81
308.881	370.81
309.111	385.81
309.341	385.81
309.571	393.81
309.8	389.81
310.03	414.81
310.26	418.81
310.49	438.81
310.72	427.81
310.949	428.81
311.179	442.81
311.409	454.81
311.639	417.81
311.868	420.81
312.098	414.81
312.328	429.81
312.557	433.81
312.787	457.81
313.017	436.81
313.246	449.81
313.476	403.81
313.706	426.81
313.935	408.81
314.165	426.81
314.394	438.81
314.624	441.81
314.853	437.81
315.083	433.81
315.312	426.81
315.542	397.81
315.771	405.81
316.001	418.81
316.23	411.81
316.46	408.81
316.689	406.81
316.919	422.81
317.148	426.81
317.377	452.81
317.607	421.81
317.836	436.81
318.065	409.81
318.295	426.81
318.524	410.81
318.753	414.81
318.983	437.81
319.212	426.81
319.441	430.81
319.67	440.81
319.9	434.81
320.129	423.81
320.358	449.81
320.587	442.81
320.816	415.81
321.046	451.81
321.275	451.81
321.504	445.81
321.733	452.81
321.962	454.81
322.191	475.81
322.42	508.81
322.649	489.81
322.878	501.81
323.108	539.81
323.337	559.81
323.566	570.81
323.795	598.81
324.024	697.81
324.253	853.81
324.482	1213.81
324.71	1853.81
324.939	2699.81
325.168	2293.81
325.397	1145.81
325.626	762.81
325.855	641.81
326.084	596.81
326.313	582.81
326.542	587.81
326.77	645.81
326.999	765.81
327.228	1056.81
327.457	1625.81
327.686	2008.81
327.914	1350.81
328.143	883.81
328.372	750.81
328.6	685.81
328.829	668.81
329.058	686.81
329.287	675.81
329.515	642.81
329.744	590.81
329.972	571.81
330.201	582.81
330.43	651.81
330.658	664.81
330.887	709.81
331.115	691.81
331.344	580.81
331.572	559.81
331.801	549.81
332.03	571.81
332.258	515.81
332.486	479.81
332.715	490.81
332.943	501.81
333.172	517.81
333.4	496.81
333.629	521.81
333.857	530.81
334.085	540.81
334.314	563.81
334.542	582.81
334.771	621.81
334.999	554.81
335.227	514.81
335.455	522.81
335.684	484.81
335.912	487.81
336.14	487.81
336.369	498.81
336.597	487.81
336.825	489.81
337.053	471.81
337.281	479.81
337.51	476.81
337.738	477.81
337.966	468.81
338.194	464.81
338.422	490.81
338.65	474.81
338.878	456.81
339.106	469.81
339.334	454.81
339.562	445.81
339.79	461.81
340.018	465.81
340.246	470.81
340.474	474.81
340.702	455.81
340.93	469.81
341.158	457.81
341.386	461.81
341.614	462.81
341.842	471.81
342.07	460.81
342.298	463.81
342.526	444.81
342.754	433.81
342.981	425.81
343.209	451.81
343.437	451.81
343.665	445.81
343.893	457.81
344.12	478.81
344.348	457.81
344.576	458.81
344.804	466.81
345.031	485.81
345.259	497.81
345.487	458.81
345.714	473.81
345.942	472.81
346.17	446.81
346.397	461.81
346.625	467.81
346.853	435.81
347.08	434.81
347.308	438.81
347.535	457.81
347.763	470.81
347.99	467.81
348.218	478.81
348.445	491.81
348.673	474.81
348.9	457.81
349.128	437.81
349.355	437.81
349.583	443.81
349.81	438.81
350.037	425.81
350.265	425.81
350.492	442.81
350.72	414.81
350.947	441.81
351.174	439.81
351.402	439.81
351.629	463.81
351.856	461.81
352.083	455.81
352.311	466.81
352.538	463.81
352.765	471.81
352.992	462.81
353.22	457.81
353.447	453.81
353.674	434.81
353.901	426.81
354.128	420.81
354.355	417.81
354.583	405.81
354.81	424.81
355.037	416.81
355.264	400.81
355.491	404.81
355.718	405.81
355.945	403.81
356.172	410.81
356.399	441.81
356.626	392.81
356.853	405.81
357.08	399.81
357.307	394.81
357.534	398.81
357.761	392.81
357.988	413.81
358.215	403.81
358.441	409.81
358.668	428.81
358.895	413.81
359.122	433.81
359.349	417.81
359.576	443.81
359.802	487.81
360.029	492.81
360.256	517.81
360.483	471.81
360.709	444.81
360.936	438.81
361.163	434.81
361.39	427.81
361.616	468.81
361.843	453.81
362.07	453.81
362.296	466.81
362.523	446.81
362.749	416.81
362.976	429.81
363.203	407.81
363.429	431.81
363.656	426.81
363.882	403.81
364.109	426.81
364.335	411.81
364.562	415.81
364.788	422.81
365.015	423.81
365.241	412.81
365.468	426.81
365.694	431.81
365.92	435.81
366.147	415.81
366.373	415.81
366.599	403.81
366.826	405.81
367.052	397.81
367.278	425.81
367.505	419.81
367.731	429.81
367.957	417.81
368.184	399.81
368.41	399.81
368.636	413.81
368.862	437.81
369.089	438.81
369.315	415.81
369.541	393.81
369.767	411.81
369.993	414.81
370.219	423.81
370.445	431.81
370.672	396.81
370.898	395.81
371.124	404.81
371.35	409.81
371.576	420.81
371.802	399.81
372.028	414.81
372.254	400.81
372.48	413.81
372.706	400.81
372.932	395.81
373.158	394.81
373.384	416.81
373.61	399.81
373.835	432.81
374.061	405.81
374.287	422.81
374.513	417.81
374.739	431.81
374.965	403.81
375.191	421.81
375.416	423.81
375.642	392.81
375.868	410.81
376.094	403.81
376.319	412.81
376.545	397.81
376.771	397.81
376.997	383.81
377.222	417.81
377.448	408.81
377.674	403.81
377.899	399.81
378.125	401.81
378.35	395.81
378.576	396.81
378.802	389.81
379.027	407.81
379.253	390.81
379.478	396.81
379.704	399.81
379.929	388.81
380.155	386.81
380.38	398.81
380.606	413.81
380.831	389.81
381.057	399.81
381.282	405.81
381.507	396.81
381.733	401.81
381.958	399.81
382.184	390.81
382.409	396.81
382.634	405.81
382.86	395.81
383.085	405.81
383.31	409.81
383.535	389.81
383.761	388.81
383.986	401.81
384.211	415.81
384.436	402.81
384.662	413.81
384.887	433.81
385.112	419.81
385.337	415.81
385.562	411.81
385.787	411.81
386.013	426.81
386.238	443.81
386.463	423.81
386.688	434.81
386.913	412.81
387.138	424.81
387.363	423.81
387.588	431.81
387.813	417.81
388.038	439.81
388.263	398.81
388.488	414.81
388.713	434.81
388.938	439.81
389.163	425.81
389.387	409.81
389.612	423.81
389.837	401.81
390.062	428.81
390.287	414.81
390.512	425.81
390.736	426.81
390.961	413.81
391.186	382.81
391.411	418.81
391.636	421.81
391.86	453.81
392.085	427.81
392.31	428.81
392.534	425.81
392.759	428.81
392.984	415.81
393.208	409.81
393.433	424.81
393.658	423.81
393.882	433.81
394.107	411.81
394.331	416.81
394.556	425.81
394.78	414.81
395.005	426.81
395.229	439.81
395.454	426.81
395.678	448.81
395.903	450.81
396.127	479.81
396.352	457.81
396.576	458.81
396.801	454.81
397.025	427.81
397.249	446.81
397.474	451.81
397.698	448.81
397.922	442.81
398.147	474.81
398.371	471.81
398.595	470.81
398.82	472.81
399.044	464.81
399.268	455.81
399.492	486.81
399.717	525.81
399.941	561.81
400.165	583.81
400.389	588.81
400.613	561.81
400.837	479.81
401.062	493.81
401.286	505.81
401.51	481.81
401.734	480.81
401.958	488.81
402.182	484.81
402.406	474.81
402.63	491.81
402.854	486.81
403.078	490.81
403.302	496.81
403.526	496.81
403.75	506.81
403.974	479.81
404.198	453.81
404.422	475.81
404.645	489.81
404.869	492.81
405.093	527.81
405.317	581.81
405.541	587.81
405.765	551.81
405.988	534.81
406.212	549.81
406.436	554.81
406.66	563.81
406.883	545.81
407.107	574.81
407.331	612.81
407.555	651.81
407.778	673.81
408.002	612.81
408.226	585.81
408.449	546.81
408.673	561.81
408.896	581.81
409.12	628.81
409.344	583.81
409.567	522.81
409.791	516.81
410.014	498.81
410.238	519.81
410.461	477.81
410.685	493.81
410.908	516.81
411.132	569.81
411.355	603.81
411.578	557.81
411.802	503.81
412.025	494.81
412.249	515.81
412.472	511.81
412.695	542.81
412.919	532.81
413.142	516.81
413.365	467.81
413.589	472.81
413.812	464.81
414.035	464.81
414.258	461.81
414.482	466.81
414.705	462.81
414.928	476.81
415.151	454.81
415.374	477.81
415.597	475.81
415.821	466.81
416.044	479.81
416.267	461.81
416.49	465.81
416.713	452.81
416.936	464.81
417.159	469.81
417.382	458.81
417.605	487.81
417.828	481.81
418.051	517.81
418.274	475.81
418.497	458.81
418.72	480.81
418.943	469.81
419.166	470.81
419.389	515.81
419.611	477.81
419.834	506.81
420.057	481.81
420.28	485.81
420.503	495.81
420.726	495.81
420.948	522.81
421.171	549.81
421.394	587.81
421.617	562.81
421.839	490.81
422.062	463.81
422.285	517.81
422.507	565.81
422.73	655.81
422.953	631.81
423.175	554.81
423.398	519.81
423.621	522.81
423.843	563.81
424.066	555.81
424.288	551.81
424.511	539.81
424.733	608.81
424.956	700.81
425.178	663.81
425.401	679.81
425.623	697.81
425.846	616.81
426.068	551.81
426.291	529.81
426.513	539.81
426.735	571.81
426.958	577.81
427.18	658.81
427.402	827.81
427.625	911.81
427.847	811.81
428.069	695.81
428.292	601.81
428.514	555.81
428.736	527.81
428.958	492.81
429.181	494.81
429.403	505.81
429.625	528.81
429.847	527.81
430.069	627.81
430.292	609.81
430.514	532.81
430.736	494.81
430.958	495.81
431.18	475.81
431.402	454.81
431.624	450.81
431.846	455.81
432.068	479.81
432.29	461.81
432.512	449.81
432.734	482.81
432.956	489.81
433.178	458.81
433.4	486.81
433.622	452.81
433.844	469.81
434.066	475.81
434.287	452.81
434.509	477.81
434.731	462.81
434.953	478.81
435.175	498.81
435.397	546.81
435.618	546.81
435.84	577.81
436.062	689.81
436.284	753.81
436.505	644.81
436.727	573.81
436.949	522.81
437.17	476.81
437.392	488.81
437.614	503.81
437.835	576.81
438.057	664.81
438.278	750.81
438.5	755.81
438.721	829.81
438.943	774.81
439.165	631.81
439.386	585.81
439.608	565.81
439.829	551.81
440.05	596.81
440.272	638.81
440.493	595.81
440.715	530.81
440.936	502.81
441.158	507.81
441.379	495.81
441.6	505.81
441.822	507.81
442.043	578.81
442.264	681.81
442.486	723.81
442.707	591.81
442.928	572.81
443.149	544.81
443.371	565.81
443.592	627.81
443.813	720.81
444.034	796.81
444.255	637.81
444.476	577.81
444.698	538.81
444.919	543.81
445.14	636.81
445.361	589.81
445.582	595.81
445.803	659.81
446.024	776.81
446.245	739.81
446.466	699.81
446.687	592.81
446.908	559.81
447.129	532.81
447.35	517.81
447.571	492.81
447.792	481.81
448.013	498.81
448.234	513.81
448.455	568.81
448.675	693.81
448.896	823.81
449.117	693.81
449.338	639.81
449.559	753.81
449.779	838.81
450	682.81
450.221	561.81
450.442	511.81
450.662	502.81
450.883	512.81
451.104	538.81
451.324	521.81
451.545	475.81
451.766	451.81
451.986	439.81
452.207	446.81
452.428	440.81
452.648	460.81
452.869	438.81
453.089	436.81
453.31	450.81
453.53	493.81
453.751	441.81
453.971	437.81
454.192	497.81
454.412	452.81
454.633	455.81
454.853	470.81
455.073	451.81
455.294	454.81
455.514	540.81
455.734	531.81
455.955	461.81
456.175	421.81
456.395	426.81
456.616	420.81
456.836	429.81
457.056	406.81
457.276	410.81
457.497	395.81
457.717	395.81
457.937	431.81
458.157	432.81
458.377	444.81
458.598	458.81
458.818	516.81
459.038	623.81
459.258	641.81
459.478	540.81
459.698	477.81
459.918	475.81
460.138	460.81
460.358	460.81
460.578	431.81
460.798	456.81
461.018	460.81
461.238	437.81
461.458	460.81
461.678	453.81
461.898	450.81
462.118	473.81
462.338	454.81
462.558	467.81
462.777	445.81
462.997	467.81
463.217	466.81
463.437	486.81
463.657	474.81
463.876	485.81
464.096	471.81
464.316	479.81
464.536	490.81
464.755	488.81
464.975	483.81
465.195	546.81
465.414	655.81
465.634	571.81
465.854	508.81
466.073	494.81
466.293	488.81
466.512	447.81
466.732	415.81
466.951	447.81
467.171	442.81
467.391	447.81
467.61	457.81
467.829	462.81
468.049	455.81
468.268	433.81
468.488	451.81
468.707	434.81
468.927	435.81
469.146	424.81
469.365	418.81
469.585	422.81
469.804	443.81
470.023	462.81
470.243	458.81
470.462	465.81
470.681	477.81
470.901	465.81
471.12	457.81
471.339	441.81
471.558	454.81
471.777	450.81
471.997	445.81
472.216	435.81
472.435	498.81
472.654	485.81
472.873	473.81
473.092	452.81
473.311	468.81
473.53	446.81
473.749	469.81
473.968	519.81
474.187	645.81
474.406	659.81
474.625	535.81
474.844	483.81
475.063	471.81
475.282	447.81
475.501	451.81
475.72	436.81
475.939	456.81
476.158	477.81
476.377	465.81
476.596	465.81
476.814	489.81
477.033	483.81
477.252	471.81
477.471	469.81
477.69	483.81
477.908	501.81
478.127	491.81
478.346	494.81
478.564	507.81
478.783	478.81
479.002	507.81
479.22	506.81
479.439	510.81
479.658	549.81
479.876	536.81
480.095	533.81
480.313	580.81
480.532	575.81
480.751	557.81
480.969	559.81
481.188	613.81
481.406	653.81
481.624	582.81
481.843	551.81
482.061	553.81
482.28	528.81
482.498	543.81
482.717	548.81
482.935	530.81
483.153	537.81
483.372	538.81
483.59	519.81
483.808	525.81
484.027	546.81
484.245	523.81
484.463	548.81
484.681	557.81
484.9	538.81
485.118	509.81
485.336	526.81
485.554	562.81
485.772	547.81
485.99	556.81
486.209	561.81
486.427	543.81
486.645	555.81
486.863	588.81
487.081	603.81
487.299	569.81
487.517	582.81
487.735	566.81
487.953	580.81
488.171	554.81
488.389	575.81
488.607	583.81
488.825	596.81
489.043	569.81
489.261	591.81
489.479	580.81
489.696	594.81
489.914	581.81
490.132	631.81
490.35	605.81
490.568	608.81
490.786	609.81
491.003	623.81
491.221	655.81
491.439	643.81
491.657	635.81
491.874	669.81
492.092	645.81
492.31	658.81
492.527	665.81
492.745	682.81
492.963	661.81
493.18	696.81
493.398	666.81
493.615	677.81
493.833	681.81
494.05	665.81
494.268	684.81
494.485	695.81
494.703	677.81
494.92	696.81
495.138	712.81
495.355	693.81
495.573	689.81
495.79	698.81
496.008	698.81
496.225	696.81
496.442	710.81
496.66	705.81
496.877	687.81
497.094	684.81
497.312	707.81
497.529	693.81
497.746	698.81
497.963	712.81
498.181	748.81
498.398	748.81
498.615	723.81
498.832	751.81
499.049	776.81
499.267	753.81
499.484	790.81
499.701	809.81
499.918	799.81
500.135	821.81
500.352	864.81
500.569	895.81
500.786	890.81
501.003	890.81
501.22	866.81
501.437	843.81
501.654	835.81
501.871	837.81
