Data from 1989.PennyLincolnUp.Lamp.En5.5.200Scan.071819.P2_HRD10591_17-23-44-972.txt Node
Date: Thu Jul 18 17:23:44 EDT 2019
User: cochatt
Spectrometer: HR+D1059
Trigger mode: 1
Integration Time (sec): 1.000000E-1
Scans to average: 1
Electric dark correction enabled: true
Nonlinearity correction enabled: false
Boxcar width: 0
XAxis mode: Wavelengths
Number of Pixels in Spectrum: 2048
>>>>>Begin Spectral Data<<<<<
223.165	-18.19
223.4	-18.19
223.635	-18.19
223.869	-6.19
224.104	-15.19
224.338	-8.19
224.573	-29.19
224.808	-14.19
225.042	-4.19
225.277	3.81
225.511	-21.19
225.746	4.81
225.98	-0.19
226.215	19.81
226.449	13.81
226.683	36.81
226.918	6.81
227.152	30.81
227.387	29.81
227.621	47.81
227.856	52.81
228.09	49.81
228.324	53.81
228.559	62.81
228.793	69.81
229.027	97.81
229.262	101.81
229.496	120.81
229.73	130.81
229.964	143.81
230.199	135.81
230.433	112.81
230.667	127.81
230.901	107.81
231.136	101.81
231.37	105.81
231.604	117.81
231.838	109.81
232.072	119.81
232.306	107.81
232.541	109.81
232.775	122.81
233.009	103.81
233.243	117.81
233.477	113.81
233.711	115.81
233.945	110.81
234.179	111.81
234.413	118.81
234.647	118.81
234.881	116.81
235.115	135.81
235.349	127.81
235.583	126.81
235.817	130.81
236.051	120.81
236.285	112.81
236.519	123.81
236.753	127.81
236.987	137.81
237.221	180.81
237.455	218.81
237.689	203.81
237.922	152.81
238.156	131.81
238.39	148.81
238.624	137.81
238.858	138.81
239.091	129.81
239.325	122.81
239.559	138.81
239.793	123.81
240.027	129.81
240.26	147.81
240.494	180.81
240.728	157.81
240.961	166.81
241.195	159.81
241.429	139.81
241.662	135.81
241.896	136.81
242.13	153.81
242.363	131.81
242.597	137.81
242.83	134.81
243.064	135.81
243.298	164.81
243.531	145.81
243.765	137.81
243.998	152.81
244.232	167.81
244.465	157.81
244.699	132.81
244.932	158.81
245.166	158.81
245.399	144.81
245.633	131.81
245.866	145.81
246.099	145.81
246.333	148.81
246.566	173.81
246.8	151.81
247.033	163.81
247.266	172.81
247.5	159.81
247.733	179.81
247.966	192.81
248.2	177.81
248.433	165.81
248.666	193.81
248.899	189.81
249.133	196.81
249.366	216.81
249.599	204.81
249.832	199.81
250.066	189.81
250.299	192.81
250.532	201.81
250.765	209.81
250.998	222.81
251.231	228.81
251.465	225.81
251.698	206.81
251.931	208.81
252.164	212.81
252.397	201.81
252.63	207.81
252.863	212.81
253.096	218.81
253.329	250.81
253.562	245.81
253.795	220.81
254.028	223.81
254.261	239.81
254.494	249.81
254.727	261.81
254.96	288.81
255.193	284.81
255.426	267.81
255.659	251.81
255.892	229.81
256.124	225.81
256.357	230.81
256.59	225.81
256.823	218.81
257.056	219.81
257.289	220.81
257.521	222.81
257.754	198.81
257.987	226.81
258.22	230.81
258.452	211.81
258.685	227.81
258.918	223.81
259.151	227.81
259.383	223.81
259.616	249.81
259.849	230.81
260.081	253.81
260.314	232.81
260.547	266.81
260.779	267.81
261.012	279.81
261.244	250.81
261.477	233.81
261.71	245.81
261.942	222.81
262.175	238.81
262.407	247.81
262.64	229.81
262.872	228.81
263.105	260.81
263.337	224.81
263.57	229.81
263.802	228.81
264.035	216.81
264.267	211.81
264.499	233.81
264.732	218.81
264.964	227.81
265.197	230.81
265.429	215.81
265.661	228.81
265.894	224.81
266.126	231.81
266.358	231.81
266.591	228.81
266.823	226.81
267.055	243.81
267.287	236.81
267.52	223.81
267.752	249.81
267.984	248.81
268.216	245.81
268.448	249.81
268.681	245.81
268.913	244.81
269.145	279.81
269.377	280.81
269.609	272.81
269.841	277.81
270.073	288.81
270.306	299.81
270.538	330.81
270.77	329.81
271.002	332.81
271.234	301.81
271.466	313.81
271.698	330.81
271.93	343.81
272.162	344.81
272.394	368.81
272.626	317.81
272.858	289.81
273.09	313.81
273.322	295.81
273.553	285.81
273.785	279.81
274.017	281.81
274.249	275.81
274.481	282.81
274.713	284.81
274.945	285.81
275.176	294.81
275.408	271.81
275.64	273.81
275.872	279.81
276.104	288.81
276.335	274.81
276.567	286.81
276.799	266.81
277.031	319.81
277.262	327.81
277.494	309.81
277.726	304.81
277.957	301.81
278.189	297.81
278.421	309.81
278.652	293.81
278.884	288.81
279.115	272.81
279.347	282.81
279.579	291.81
279.81	267.81
280.042	258.81
280.273	281.81
280.505	272.81
280.736	263.81
280.968	272.81
281.199	264.81
281.431	268.81
281.662	301.81
281.894	271.81
282.125	282.81
282.356	315.81
282.588	323.81
282.819	327.81
283.051	294.81
283.282	286.81
283.513	296.81
283.745	287.81
283.976	297.81
284.207	303.81
284.439	289.81
284.67	288.81
284.901	292.81
285.132	298.81
285.364	272.81
285.595	271.81
285.826	261.81
286.057	283.81
286.288	287.81
286.52	301.81
286.751	301.81
286.982	284.81
287.213	293.81
287.444	298.81
287.675	286.81
287.906	303.81
288.138	317.81
288.369	302.81
288.6	293.81
288.831	315.81
289.062	299.81
289.293	289.81
289.524	285.81
289.755	289.81
289.986	299.81
290.217	305.81
290.448	293.81
290.679	309.81
290.91	311.81
291.141	299.81
291.371	295.81
291.602	302.81
291.833	299.81
292.064	317.81
292.295	299.81
292.526	300.81
292.757	308.81
292.987	288.81
293.218	296.81
293.449	300.81
293.68	299.81
293.91	308.81
294.141	285.81
294.372	294.81
294.603	288.81
294.833	286.81
295.064	303.81
295.295	310.81
295.525	302.81
295.756	299.81
295.987	314.81
296.217	321.81
296.448	336.81
296.679	327.81
296.909	312.81
297.14	316.81
297.37	304.81
297.601	309.81
297.831	303.81
298.062	309.81
298.292	302.81
298.523	307.81
298.753	307.81
298.984	319.81
299.214	298.81
299.445	309.81
299.675	325.81
299.905	307.81
300.136	307.81
300.366	315.81
300.597	309.81
300.827	332.81
301.057	322.81
301.288	329.81
301.518	318.81
301.748	329.81
301.979	329.81
302.209	318.81
302.439	313.81
302.669	333.81
302.9	318.81
303.13	336.81
303.36	329.81
303.59	346.81
303.82	360.81
304.051	337.81
304.281	333.81
304.511	350.81
304.741	319.81
304.971	335.81
305.201	331.81
305.431	325.81
305.661	332.81
305.891	340.81
306.121	323.81
306.352	318.81
306.582	331.81
306.812	326.81
307.042	334.81
307.272	340.81
307.502	349.81
307.731	344.81
307.961	329.81
308.191	324.81
308.421	352.81
308.651	340.81
308.881	332.81
309.111	353.81
309.341	366.81
309.571	368.81
309.8	367.81
310.03	380.81
310.26	381.81
310.49	393.81
310.72	378.81
310.949	385.81
311.179	393.81
311.409	368.81
311.639	391.81
311.868	373.81
312.098	363.81
312.328	379.81
312.557	409.81
312.787	409.81
313.017	419.81
313.246	383.81
313.476	377.81
313.706	390.81
313.935	391.81
314.165	389.81
314.394	395.81
314.624	400.81
314.853	384.81
315.083	410.81
315.312	381.81
315.542	387.81
315.771	367.81
316.001	389.81
316.23	385.81
316.46	379.81
316.689	390.81
316.919	367.81
317.148	400.81
317.377	395.81
317.607	381.81
317.836	390.81
318.065	392.81
318.295	401.81
318.524	377.81
318.753	371.81
318.983	380.81
319.212	386.81
319.441	385.81
319.67	399.81
319.9	385.81
320.129	388.81
320.358	378.81
320.587	389.81
320.816	401.81
321.046	403.81
321.275	417.81
321.504	407.81
321.733	417.81
321.962	392.81
322.191	401.81
322.42	454.81
322.649	445.81
322.878	470.81
323.108	484.81
323.337	495.81
323.566	510.81
323.795	571.81
324.024	599.81
324.253	713.81
324.482	1028.81
324.71	1579.81
324.939	2216.81
325.168	1933.81
325.397	1022.81
325.626	683.81
325.855	589.81
326.084	526.81
326.313	501.81
326.542	522.81
326.77	575.81
326.999	673.81
327.228	913.81
327.457	1349.81
327.686	1669.81
327.914	1129.81
328.143	726.81
328.372	624.81
328.6	585.81
328.829	553.81
329.058	575.81
329.287	589.81
329.515	570.81
329.744	501.81
329.972	491.81
330.201	502.81
330.43	528.81
330.658	548.81
330.887	585.81
331.115	564.81
331.344	519.81
331.572	510.81
331.801	477.81
332.03	496.81
332.258	479.81
332.486	456.81
332.715	453.81
332.943	446.81
333.172	432.81
333.4	450.81
333.629	439.81
333.857	461.81
334.085	459.81
334.314	441.81
334.542	460.81
334.771	458.81
334.999	462.81
335.227	469.81
335.455	434.81
335.684	429.81
335.912	429.81
336.14	455.81
336.369	430.81
336.597	432.81
336.825	466.81
337.053	432.81
337.281	432.81
337.51	432.81
337.738	429.81
337.966	417.81
338.194	436.81
338.422	447.81
338.65	439.81
338.878	426.81
339.106	430.81
339.334	427.81
339.562	420.81
339.79	436.81
340.018	442.81
340.246	423.81
340.474	449.81
340.702	453.81
340.93	417.81
341.158	409.81
341.386	412.81
341.614	420.81
341.842	405.81
342.07	413.81
342.298	417.81
342.526	409.81
342.754	399.81
342.981	412.81
343.209	412.81
343.437	412.81
343.665	405.81
343.893	437.81
344.12	430.81
344.348	432.81
344.576	419.81
344.804	448.81
345.031	429.81
345.259	451.81
345.487	455.81
345.714	435.81
345.942	446.81
346.17	409.81
346.397	406.81
346.625	425.81
346.853	417.81
347.08	408.81
347.308	429.81
347.535	420.81
347.763	432.81
347.99	424.81
348.218	441.81
348.445	442.81
348.673	431.81
348.9	415.81
349.128	427.81
349.355	404.81
349.583	408.81
349.81	390.81
350.037	394.81
350.265	404.81
350.492	399.81
350.72	405.81
350.947	405.81
351.174	417.81
351.402	436.81
351.629	410.81
351.856	416.81
352.083	440.81
352.311	435.81
352.538	430.81
352.765	419.81
352.992	421.81
353.22	375.81
353.447	406.81
353.674	406.81
353.901	383.81
354.128	383.81
354.355	364.81
354.583	387.81
354.81	361.81
355.037	398.81
355.264	381.81
355.491	391.81
355.718	368.81
355.945	387.81
356.172	387.81
356.399	387.81
356.626	365.81
356.853	377.81
357.08	375.81
357.307	383.81
357.534	364.81
357.761	368.81
357.988	377.81
358.215	381.81
358.441	372.81
358.668	401.81
358.895	389.81
359.122	387.81
359.349	375.81
359.576	408.81
359.802	449.81
360.029	464.81
360.256	482.81
360.483	451.81
360.709	413.81
360.936	421.81
361.163	391.81
361.39	406.81
361.616	422.81
361.843	411.81
362.07	395.81
362.296	412.81
362.523	409.81
362.749	402.81
362.976	407.81
363.203	397.81
363.429	387.81
363.656	388.81
363.882	392.81
364.109	377.81
364.335	377.81
364.562	374.81
364.788	394.81
365.015	378.81
365.241	388.81
365.468	396.81
365.694	414.81
365.92	394.81
366.147	396.81
366.373	368.81
366.599	373.81
366.826	387.81
367.052	357.81
367.278	389.81
367.505	369.81
367.731	381.81
367.957	392.81
368.184	383.81
368.41	407.81
368.636	377.81
368.862	395.81
369.089	391.81
369.315	378.81
369.541	393.81
369.767	362.81
369.993	400.81
370.219	383.81
370.445	399.81
370.672	373.81
370.898	366.81
371.124	366.81
371.35	379.81
371.576	384.81
371.802	364.81
372.028	391.81
372.254	377.81
372.48	367.81
372.706	389.81
372.932	389.81
373.158	367.81
373.384	372.81
373.61	393.81
373.835	399.81
374.061	375.81
374.287	383.81
374.513	392.81
374.739	402.81
374.965	390.81
375.191	385.81
375.416	387.81
375.642	367.81
375.868	377.81
376.094	383.81
376.319	376.81
376.545	371.81
376.771	363.81
376.997	379.81
377.222	363.81
377.448	352.81
377.674	379.81
377.899	363.81
378.125	368.81
378.35	383.81
378.576	391.81
378.802	383.81
379.027	381.81
379.253	365.81
379.478	381.81
379.704	385.81
379.929	384.81
380.155	380.81
380.38	369.81
380.606	377.81
380.831	367.81
381.057	391.81
381.282	375.81
381.507	376.81
381.733	381.81
381.958	375.81
382.184	375.81
382.409	400.81
382.634	371.81
382.86	375.81
383.085	403.81
383.31	385.81
383.535	387.81
383.761	395.81
383.986	390.81
384.211	383.81
384.436	397.81
384.662	390.81
384.887	407.81
385.112	399.81
385.337	392.81
385.562	369.81
385.787	411.81
386.013	415.81
386.238	419.81
386.463	407.81
386.688	413.81
386.913	385.81
387.138	406.81
387.363	407.81
387.588	394.81
387.813	395.81
388.038	407.81
388.263	402.81
388.488	415.81
388.713	407.81
388.938	415.81
389.163	414.81
389.387	414.81
389.612	380.81
389.837	381.81
390.062	399.81
390.287	383.81
390.512	394.81
390.736	406.81
390.961	413.81
391.186	405.81
391.411	371.81
391.636	399.81
391.86	389.81
392.085	424.81
392.31	415.81
392.534	383.81
392.759	414.81
392.984	421.81
393.208	408.81
393.433	400.81
393.658	400.81
393.882	384.81
394.107	381.81
394.331	384.81
394.556	395.81
394.78	400.81
395.005	432.81
395.229	389.81
395.454	393.81
395.678	417.81
395.903	430.81
396.127	415.81
396.352	464.81
396.576	431.81
396.801	425.81
397.025	428.81
397.249	413.81
397.474	433.81
397.698	400.81
397.922	423.81
398.147	437.81
398.371	464.81
398.595	439.81
398.82	460.81
399.044	453.81
399.268	443.81
399.492	470.81
399.717	530.81
399.941	518.81
400.165	547.81
400.389	544.81
400.613	521.81
400.837	474.81
401.062	447.81
401.286	467.81
401.51	445.81
401.734	451.81
401.958	472.81
402.182	430.81
402.406	461.81
402.63	442.81
402.854	441.81
403.078	451.81
403.302	446.81
403.526	468.81
403.75	473.81
403.974	459.81
404.198	452.81
404.422	471.81
404.645	461.81
404.869	465.81
405.093	479.81
405.317	518.81
405.541	534.81
405.765	483.81
405.988	473.81
406.212	479.81
406.436	519.81
406.66	535.81
406.883	502.81
407.107	529.81
407.331	573.81
407.555	622.81
407.778	613.81
408.002	586.81
408.226	524.81
408.449	533.81
408.673	520.81
408.896	538.81
409.12	554.81
409.344	550.81
409.567	487.81
409.791	477.81
410.014	461.81
410.238	460.81
410.461	462.81
410.685	477.81
410.908	507.81
411.132	511.81
411.355	556.81
411.578	506.81
411.802	467.81
412.025	449.81
412.249	444.81
412.472	460.81
412.695	462.81
412.919	448.81
413.142	424.81
413.365	429.81
413.589	447.81
413.812	419.81
414.035	430.81
414.258	445.81
414.482	418.81
414.705	435.81
414.928	427.81
415.151	422.81
415.374	422.81
415.597	415.81
415.821	409.81
416.044	428.81
416.267	458.81
416.49	435.81
416.713	409.81
416.936	437.81
417.159	432.81
417.382	423.81
417.605	450.81
417.828	445.81
418.051	443.81
418.274	450.81
418.497	435.81
418.72	433.81
418.943	448.81
419.166	457.81
419.389	451.81
419.611	454.81
419.834	457.81
420.057	456.81
420.28	447.81
420.503	439.81
420.726	463.81
420.948	474.81
421.171	519.81
421.394	531.81
421.617	474.81
421.839	479.81
422.062	466.81
422.285	463.81
422.507	519.81
422.73	602.81
422.953	593.81
423.175	506.81
423.398	507.81
423.621	478.81
423.843	489.81
424.066	506.81
424.288	503.81
424.511	503.81
424.733	572.81
424.956	624.81
425.178	615.81
425.401	643.81
425.623	641.81
425.846	545.81
426.068	519.81
426.291	495.81
426.513	466.81
426.735	504.81
426.958	574.81
427.18	606.81
427.402	740.81
427.625	816.81
427.847	728.81
428.069	613.81
428.292	542.81
428.514	501.81
428.736	497.81
428.958	465.81
429.181	447.81
429.403	453.81
429.625	476.81
429.847	503.81
430.069	572.81
430.292	558.81
430.514	478.81
430.736	447.81
430.958	449.81
431.18	457.81
431.402	436.81
431.624	447.81
431.846	436.81
432.068	410.81
432.29	439.81
432.512	440.81
432.734	440.81
432.956	448.81
433.178	465.81
433.4	449.81
433.622	416.81
433.844	414.81
434.066	447.81
434.287	423.81
434.509	446.81
434.731	440.81
434.953	449.81
435.175	452.81
435.397	488.81
435.618	472.81
435.84	516.81
436.062	644.81
436.284	681.81
436.505	560.81
436.727	524.81
436.949	476.81
437.17	443.81
437.392	449.81
437.614	485.81
437.835	508.81
438.057	613.81
438.278	661.81
438.5	684.81
438.721	760.81
438.943	736.81
439.165	589.81
439.386	531.81
439.608	523.81
439.829	511.81
440.05	535.81
440.272	604.81
440.493	563.81
440.715	483.81
440.936	483.81
441.158	462.81
441.379	475.81
441.6	478.81
441.822	511.81
442.043	550.81
442.264	607.81
442.486	650.81
442.707	571.81
442.928	533.81
443.149	519.81
443.371	533.81
443.592	594.81
443.813	669.81
444.034	719.81
444.255	597.81
444.476	536.81
444.698	501.81
444.919	500.81
445.14	608.81
445.361	556.81
445.582	547.81
445.803	603.81
446.024	709.81
446.245	683.81
446.466	662.81
446.687	573.81
446.908	515.81
447.129	479.81
447.35	478.81
447.571	480.81
447.792	463.81
448.013	464.81
448.234	474.81
448.455	530.81
448.675	617.81
448.896	738.81
449.117	643.81
449.338	593.81
449.559	664.81
449.779	767.81
450	637.81
450.221	524.81
450.442	499.81
450.662	479.81
450.883	475.81
451.104	476.81
451.324	457.81
451.545	449.81
451.766	428.81
451.986	416.81
452.207	411.81
452.428	397.81
452.648	405.81
452.869	395.81
453.089	419.81
453.31	430.81
453.53	393.81
453.751	403.81
453.971	418.81
454.192	420.81
454.412	422.81
454.633	400.81
454.853	432.81
455.073	396.81
455.294	432.81
455.514	501.81
455.734	493.81
455.955	408.81
456.175	408.81
456.395	391.81
456.616	391.81
456.836	383.81
457.056	381.81
457.276	369.81
457.497	400.81
457.717	380.81
457.937	397.81
458.157	403.81
458.377	413.81
458.598	410.81
458.818	473.81
459.038	585.81
459.258	573.81
459.478	492.81
459.698	441.81
459.918	419.81
460.138	427.81
460.358	436.81
460.578	433.81
460.798	433.81
461.018	452.81
461.238	415.81
461.458	429.81
461.678	420.81
461.898	430.81
462.118	423.81
462.338	429.81
462.558	438.81
462.777	453.81
462.997	461.81
463.217	456.81
463.437	445.81
463.657	443.81
463.876	443.81
464.096	453.81
464.316	441.81
464.536	475.81
464.755	455.81
464.975	474.81
465.195	517.81
465.414	565.81
465.634	516.81
465.854	453.81
466.073	437.81
466.293	422.81
466.512	428.81
466.732	425.81
466.951	402.81
467.171	400.81
467.391	404.81
467.61	422.81
467.829	428.81
468.049	419.81
468.268	407.81
468.488	408.81
468.707	397.81
468.927	404.81
469.146	395.81
469.365	404.81
469.585	412.81
469.804	436.81
470.023	428.81
470.243	420.81
470.462	442.81
470.681	447.81
470.901	418.81
471.12	415.81
471.339	431.81
471.558	409.81
471.777	408.81
471.997	412.81
472.216	402.81
472.435	409.81
472.654	408.81
472.873	422.81
473.092	445.81
473.311	407.81
473.53	429.81
473.749	423.81
473.968	485.81
474.187	585.81
474.406	600.81
474.625	492.81
474.844	433.81
475.063	426.81
475.282	420.81
475.501	427.81
475.72	424.81
475.939	432.81
476.158	437.81
476.377	443.81
476.596	433.81
476.814	452.81
477.033	445.81
477.252	459.81
477.471	443.81
477.69	457.81
477.908	437.81
478.127	447.81
478.346	459.81
478.564	453.81
478.783	468.81
479.002	476.81
479.22	475.81
479.439	476.81
479.658	507.81
479.876	515.81
480.095	502.81
480.313	525.81
480.532	519.81
480.751	490.81
480.969	479.81
481.188	524.81
481.406	504.81
481.624	483.81
481.843	501.81
482.061	477.81
482.28	501.81
482.498	485.81
482.717	475.81
482.935	503.81
483.153	493.81
483.372	491.81
483.59	489.81
483.808	471.81
484.027	478.81
484.245	498.81
484.463	515.81
484.681	499.81
484.9	493.81
485.118	487.81
485.336	502.81
485.554	505.81
485.772	525.81
485.99	534.81
486.209	531.81
486.427	522.81
486.645	486.81
486.863	532.81
487.081	544.81
487.299	533.81
487.517	526.81
487.735	539.81
487.953	526.81
488.171	524.81
488.389	537.81
488.607	541.81
488.825	545.81
489.043	525.81
489.261	529.81
489.479	541.81
489.696	520.81
489.914	555.81
490.132	540.81
490.35	541.81
490.568	575.81
490.786	572.81
491.003	571.81
491.221	558.81
491.439	576.81
491.657	578.81
491.874	589.81
492.092	577.81
492.31	601.81
492.527	603.81
492.745	602.81
492.963	606.81
493.18	619.81
493.398	613.81
493.615	606.81
493.833	599.81
494.05	602.81
494.268	609.81
494.485	617.81
494.703	632.81
494.92	630.81
495.138	615.81
495.355	633.81
495.573	643.81
495.79	645.81
496.008	628.81
496.225	621.81
496.442	646.81
496.66	632.81
496.877	625.81
497.094	634.81
497.312	633.81
497.529	634.81
497.746	656.81
497.963	652.81
498.181	648.81
498.398	691.81
498.615	679.81
498.832	674.81
499.049	697.81
499.267	705.81
499.484	736.81
499.701	729.81
499.918	751.81
500.135	774.81
500.352	816.81
500.569	823.81
500.786	819.81
501.003	808.81
501.22	803.81
501.437	780.81
501.654	783.81
501.871	783.81
