Data from 1989.PennyLincolnUp.Lamp.En5.5.200Scan.071819.P2_HRD10591_17-25-54-973.txt Node
Date: Thu Jul 18 17:25:54 EDT 2019
User: cochatt
Spectrometer: HR+D1059
Trigger mode: 1
Integration Time (sec): 1.000000E-1
Scans to average: 1
Electric dark correction enabled: true
Nonlinearity correction enabled: false
Boxcar width: 0
XAxis mode: Wavelengths
Number of Pixels in Spectrum: 2048
>>>>>Begin Spectral Data<<<<<
223.165	-30.19
223.4	-30.19
223.635	-30.19
223.869	-25.19
224.104	-15.19
224.338	-19.19
224.573	-7.19
224.808	-14.19
225.042	-7.19
225.277	2.81
225.511	3.81
225.746	6.81
225.98	-1.19
226.215	5.81
226.449	10.81
226.683	25.81
226.918	25.81
227.152	37.81
227.387	38.81
227.621	35.81
227.856	53.81
228.09	49.81
228.324	53.81
228.559	48.81
228.793	85.81
229.027	91.81
229.262	120.81
229.496	119.81
229.73	145.81
229.964	175.81
230.199	139.81
230.433	117.81
230.667	116.81
230.901	145.81
231.136	112.81
231.37	119.81
231.604	122.81
231.838	115.81
232.072	129.81
232.306	107.81
232.541	98.81
232.775	107.81
233.009	128.81
233.243	128.81
233.477	105.81
233.711	105.81
233.945	121.81
234.179	118.81
234.413	126.81
234.647	105.81
234.881	115.81
235.115	121.81
235.349	120.81
235.583	126.81
235.817	118.81
236.051	115.81
236.285	118.81
236.519	140.81
236.753	151.81
236.987	137.81
237.221	189.81
237.455	243.81
237.689	192.81
237.922	161.81
238.156	152.81
238.39	144.81
238.624	120.81
238.858	135.81
239.091	116.81
239.325	145.81
239.559	121.81
239.793	128.81
240.027	134.81
240.26	155.81
240.494	151.81
240.728	158.81
240.961	169.81
241.195	145.81
241.429	153.81
241.662	145.81
241.896	151.81
242.13	155.81
242.363	159.81
242.597	143.81
242.83	145.81
243.064	155.81
243.298	133.81
243.531	155.81
243.765	149.81
243.998	157.81
244.232	152.81
244.465	157.81
244.699	167.81
244.932	169.81
245.166	147.81
245.399	166.81
245.633	156.81
245.866	158.81
246.099	147.81
246.333	175.81
246.566	162.81
246.8	166.81
247.033	173.81
247.266	183.81
247.5	175.81
247.733	171.81
247.966	158.81
248.2	197.81
248.433	189.81
248.666	199.81
248.899	197.81
249.133	223.81
249.366	239.81
249.599	208.81
249.832	202.81
250.066	181.81
250.299	205.81
250.532	211.81
250.765	230.81
250.998	242.81
251.231	240.81
251.465	240.81
251.698	228.81
251.931	220.81
252.164	214.81
252.397	249.81
252.63	236.81
252.863	236.81
253.096	253.81
253.329	264.81
253.562	254.81
253.795	243.81
254.028	225.81
254.261	241.81
254.494	253.81
254.727	290.81
254.96	330.81
255.193	305.81
255.426	274.81
255.659	277.81
255.892	279.81
256.124	278.81
256.357	285.81
256.59	270.81
256.823	269.81
257.056	256.81
257.289	234.81
257.521	230.81
257.754	257.81
257.987	225.81
258.22	238.81
258.452	239.81
258.685	234.81
258.918	226.81
259.151	220.81
259.383	263.81
259.616	264.81
259.849	249.81
260.081	270.81
260.314	277.81
260.547	302.81
260.779	273.81
261.012	253.81
261.244	261.81
261.477	258.81
261.71	228.81
261.942	255.81
262.175	270.81
262.407	262.81
262.64	232.81
262.872	243.81
263.105	245.81
263.337	235.81
263.57	251.81
263.802	233.81
264.035	241.81
264.267	244.81
264.499	237.81
264.732	232.81
264.964	246.81
265.197	244.81
265.429	242.81
265.661	223.81
265.894	220.81
266.126	244.81
266.358	235.81
266.591	247.81
266.823	249.81
267.055	242.81
267.287	253.81
267.52	252.81
267.752	251.81
267.984	245.81
268.216	259.81
268.448	259.81
268.681	270.81
268.913	274.81
269.145	285.81
269.377	303.81
269.609	304.81
269.841	317.81
270.073	316.81
270.306	323.81
270.538	355.81
270.77	357.81
271.002	346.81
271.234	338.81
271.466	335.81
271.698	366.81
271.93	356.81
272.162	350.81
272.394	340.81
272.626	346.81
272.858	349.81
273.09	333.81
273.322	302.81
273.553	299.81
273.785	281.81
274.017	286.81
274.249	295.81
274.481	296.81
274.713	302.81
274.945	287.81
275.176	291.81
275.408	279.81
275.64	298.81
275.872	295.81
276.104	289.81
276.335	282.81
276.567	315.81
276.799	343.81
277.031	336.81
277.262	342.81
277.494	362.81
277.726	339.81
277.957	323.81
278.189	314.81
278.421	307.81
278.652	287.81
278.884	295.81
279.115	273.81
279.347	292.81
279.579	309.81
279.81	284.81
280.042	283.81
280.273	296.81
280.505	297.81
280.736	299.81
280.968	281.81
281.199	304.81
281.431	281.81
281.662	309.81
281.894	304.81
282.125	292.81
282.356	313.81
282.588	311.81
282.819	341.81
283.051	312.81
283.282	307.81
283.513	296.81
283.745	305.81
283.976	293.81
284.207	313.81
284.439	298.81
284.67	303.81
284.901	292.81
285.132	307.81
285.364	281.81
285.595	299.81
285.826	319.81
286.057	308.81
286.288	311.81
286.52	296.81
286.751	317.81
286.982	299.81
287.213	303.81
287.444	303.81
287.675	309.81
287.906	308.81
288.138	324.81
288.369	319.81
288.6	336.81
288.831	332.81
289.062	337.81
289.293	325.81
289.524	313.81
289.755	327.81
289.986	308.81
290.217	314.81
290.448	297.81
290.679	315.81
290.91	327.81
291.141	312.81
291.371	319.81
291.602	301.81
291.833	289.81
292.064	322.81
292.295	299.81
292.526	295.81
292.757	306.81
292.987	308.81
293.218	314.81
293.449	323.81
293.68	319.81
293.91	308.81
294.141	310.81
294.372	302.81
294.603	312.81
294.833	312.81
295.064	300.81
295.295	323.81
295.525	324.81
295.756	334.81
295.987	329.81
296.217	342.81
296.448	368.81
296.679	334.81
296.909	318.81
297.14	319.81
297.37	342.81
297.601	303.81
297.831	319.81
298.062	341.81
298.292	355.81
298.523	326.81
298.753	327.81
298.984	330.81
299.214	317.81
299.445	347.81
299.675	332.81
299.905	326.81
300.136	324.81
300.366	336.81
300.597	324.81
300.827	356.81
301.057	366.81
301.288	372.81
301.518	345.81
301.748	354.81
301.979	344.81
302.209	341.81
302.439	325.81
302.669	348.81
302.9	357.81
303.13	343.81
303.36	346.81
303.59	351.81
303.82	378.81
304.051	364.81
304.281	364.81
304.511	357.81
304.741	354.81
304.971	348.81
305.201	337.81
305.431	342.81
305.661	364.81
305.891	359.81
306.121	357.81
306.352	373.81
306.582	380.81
306.812	368.81
307.042	358.81
307.272	359.81
307.502	366.81
307.731	350.81
307.961	364.81
308.191	385.81
308.421	357.81
308.651	371.81
308.881	366.81
309.111	389.81
309.341	375.81
309.571	398.81
309.8	383.81
310.03	405.81
310.26	416.81
310.49	404.81
310.72	424.81
310.949	446.81
311.179	448.81
311.409	412.81
311.639	386.81
311.868	420.81
312.098	416.81
312.328	433.81
312.557	435.81
312.787	453.81
313.017	447.81
313.246	435.81
313.476	406.81
313.706	400.81
313.935	404.81
314.165	424.81
314.394	438.81
314.624	451.81
314.853	433.81
315.083	426.81
315.312	430.81
315.542	411.81
315.771	410.81
316.001	404.81
316.23	399.81
316.46	399.81
316.689	410.81
316.919	424.81
317.148	423.81
317.377	432.81
317.607	430.81
317.836	419.81
318.065	419.81
318.295	402.81
318.524	412.81
318.753	401.81
318.983	421.81
319.212	424.81
319.441	444.81
319.67	423.81
319.9	403.81
320.129	424.81
320.358	424.81
320.587	423.81
320.816	448.81
321.046	451.81
321.275	469.81
321.504	436.81
321.733	453.81
321.962	446.81
322.191	455.81
322.42	468.81
322.649	501.81
322.878	522.81
323.108	513.81
323.337	540.81
323.566	576.81
323.795	613.81
324.024	667.81
324.253	807.81
324.482	1144.81
324.71	1800.81
324.939	2505.81
325.168	2213.81
325.397	1131.81
325.626	761.81
325.855	647.81
326.084	583.81
326.313	571.81
326.542	584.81
326.77	631.81
326.999	725.81
327.228	1008.81
327.457	1559.81
327.686	1927.81
327.914	1273.81
328.143	846.81
328.372	728.81
328.6	684.81
328.829	652.81
329.058	635.81
329.287	665.81
329.515	644.81
329.744	605.81
329.972	599.81
330.201	623.81
330.43	683.81
330.658	693.81
330.887	691.81
331.115	699.81
331.344	569.81
331.572	561.81
331.801	564.81
332.03	566.81
332.258	518.81
332.486	521.81
332.715	503.81
332.943	503.81
333.172	499.81
333.4	512.81
333.629	529.81
333.857	535.81
334.085	553.81
334.314	591.81
334.542	624.81
334.771	649.81
334.999	565.81
335.227	527.81
335.455	521.81
335.684	518.81
335.912	493.81
336.14	475.81
336.369	473.81
336.597	503.81
336.825	477.81
337.053	490.81
337.281	456.81
337.51	467.81
337.738	478.81
337.966	440.81
338.194	478.81
338.422	470.81
338.65	463.81
338.878	471.81
339.106	456.81
339.334	458.81
339.562	469.81
339.79	432.81
340.018	460.81
340.246	465.81
340.474	467.81
340.702	469.81
340.93	453.81
341.158	460.81
341.386	459.81
341.614	472.81
341.842	458.81
342.07	464.81
342.298	447.81
342.526	444.81
342.754	425.81
342.981	423.81
343.209	433.81
343.437	447.81
343.665	443.81
343.893	453.81
344.12	460.81
344.348	451.81
344.576	446.81
344.804	477.81
345.031	480.81
345.259	474.81
345.487	477.81
345.714	456.81
345.942	428.81
346.17	426.81
346.397	437.81
346.625	436.81
346.853	445.81
347.08	420.81
347.308	449.81
347.535	456.81
347.763	452.81
347.99	427.81
348.218	464.81
348.445	459.81
348.673	484.81
348.9	475.81
349.128	439.81
349.355	439.81
349.583	426.81
349.81	422.81
350.037	425.81
350.265	421.81
350.492	418.81
350.72	421.81
350.947	444.81
351.174	439.81
351.402	449.81
351.629	460.81
351.856	447.81
352.083	448.81
352.311	475.81
352.538	447.81
352.765	470.81
352.992	445.81
353.22	435.81
353.447	428.81
353.674	411.81
353.901	443.81
354.128	401.81
354.355	421.81
354.583	400.81
354.81	408.81
355.037	391.81
355.264	410.81
355.491	387.81
355.718	376.81
355.945	398.81
356.172	398.81
356.399	408.81
356.626	377.81
356.853	385.81
357.08	398.81
357.307	394.81
357.534	380.81
357.761	390.81
357.988	390.81
358.215	401.81
358.441	410.81
358.668	389.81
358.895	397.81
359.122	400.81
359.349	405.81
359.576	445.81
359.802	465.81
360.029	478.81
360.256	479.81
360.483	477.81
360.709	445.81
360.936	443.81
361.163	430.81
361.39	415.81
361.616	444.81
361.843	448.81
362.07	428.81
362.296	437.81
362.523	426.81
362.749	448.81
362.976	413.81
363.203	397.81
363.429	400.81
363.656	412.81
363.882	415.81
364.109	428.81
364.335	403.81
364.562	403.81
364.788	413.81
365.015	409.81
365.241	388.81
365.468	402.81
365.694	406.81
365.92	405.81
366.147	388.81
366.373	390.81
366.599	414.81
366.826	384.81
367.052	380.81
367.278	396.81
367.505	398.81
367.731	413.81
367.957	391.81
368.184	408.81
368.41	405.81
368.636	401.81
368.862	416.81
369.089	399.81
369.315	395.81
369.541	416.81
369.767	411.81
369.993	401.81
370.219	413.81
370.445	400.81
370.672	411.81
370.898	400.81
371.124	399.81
371.35	394.81
371.576	400.81
371.802	399.81
372.028	408.81
372.254	399.81
372.48	398.81
372.706	392.81
372.932	405.81
373.158	416.81
373.384	395.81
373.61	424.81
373.835	388.81
374.061	379.81
374.287	379.81
374.513	399.81
374.739	401.81
374.965	403.81
375.191	403.81
375.416	408.81
375.642	390.81
375.868	397.81
376.094	379.81
376.319	368.81
376.545	414.81
376.771	393.81
376.997	379.81
377.222	380.81
377.448	374.81
377.674	389.81
377.899	385.81
378.125	374.81
378.35	366.81
378.576	402.81
378.802	376.81
379.027	389.81
379.253	402.81
379.478	417.81
379.704	375.81
379.929	392.81
380.155	389.81
380.38	399.81
380.606	390.81
380.831	370.81
381.057	378.81
381.282	376.81
381.507	388.81
381.733	399.81
381.958	391.81
382.184	390.81
382.409	397.81
382.634	390.81
382.86	413.81
383.085	381.81
383.31	411.81
383.535	404.81
383.761	382.81
383.986	409.81
384.211	409.81
384.436	410.81
384.662	425.81
384.887	402.81
385.112	402.81
385.337	399.81
385.562	419.81
385.787	387.81
386.013	429.81
386.238	442.81
386.463	436.81
386.688	413.81
386.913	407.81
387.138	415.81
387.363	413.81
387.588	420.81
387.813	414.81
388.038	389.81
388.263	415.81
388.488	391.81
388.713	406.81
388.938	420.81
389.163	421.81
389.387	400.81
389.612	431.81
389.837	393.81
390.062	399.81
390.287	414.81
390.512	421.81
390.736	417.81
390.961	425.81
391.186	401.81
391.411	415.81
391.636	436.81
391.86	421.81
392.085	407.81
392.31	414.81
392.534	416.81
392.759	414.81
392.984	423.81
393.208	413.81
393.433	421.81
393.658	419.81
393.882	410.81
394.107	415.81
394.331	437.81
394.556	395.81
394.78	407.81
395.005	406.81
395.229	408.81
395.454	419.81
395.678	431.81
395.903	425.81
396.127	460.81
396.352	467.81
396.576	433.81
396.801	413.81
397.025	428.81
397.249	427.81
397.474	430.81
397.698	429.81
397.922	440.81
398.147	469.81
398.371	470.81
398.595	449.81
398.82	452.81
399.044	441.81
399.268	474.81
399.492	495.81
399.717	525.81
399.941	522.81
400.165	576.81
400.389	576.81
400.613	511.81
400.837	487.81
401.062	476.81
401.286	464.81
401.51	470.81
401.734	470.81
401.958	454.81
402.182	456.81
402.406	482.81
402.63	492.81
402.854	478.81
403.078	484.81
403.302	487.81
403.526	467.81
403.75	473.81
403.974	496.81
404.198	470.81
404.422	488.81
404.645	512.81
404.869	483.81
405.093	526.81
405.317	574.81
405.541	620.81
405.765	555.81
405.988	521.81
406.212	527.81
406.436	552.81
406.66	544.81
406.883	525.81
407.107	546.81
407.331	580.81
407.555	654.81
407.778	651.81
408.002	587.81
408.226	559.81
408.449	534.81
408.673	540.81
408.896	571.81
409.12	603.81
409.344	550.81
409.567	509.81
409.791	499.81
410.014	496.81
410.238	488.81
410.461	494.81
410.685	481.81
410.908	517.81
411.132	547.81
411.355	580.81
411.578	555.81
411.802	519.81
412.025	499.81
412.249	490.81
412.472	515.81
412.695	579.81
412.919	564.81
413.142	502.81
413.365	470.81
413.589	485.81
413.812	478.81
414.035	455.81
414.258	471.81
414.482	430.81
414.705	453.81
414.928	443.81
415.151	465.81
415.374	451.81
415.597	458.81
415.821	454.81
416.044	441.81
416.267	464.81
416.49	430.81
416.713	445.81
416.936	455.81
417.159	445.81
417.382	457.81
417.605	468.81
417.828	473.81
418.051	494.81
418.274	465.81
418.497	444.81
418.72	436.81
418.943	447.81
419.166	473.81
419.389	488.81
419.611	483.81
419.834	475.81
420.057	493.81
420.28	478.81
420.503	471.81
420.726	493.81
420.948	489.81
421.171	523.81
421.394	564.81
421.617	525.81
421.839	492.81
422.062	469.81
422.285	503.81
422.507	585.81
422.73	613.81
422.953	606.81
423.175	523.81
423.398	508.81
423.621	520.81
423.843	489.81
424.066	525.81
424.288	529.81
424.511	528.81
424.733	576.81
424.956	668.81
425.178	676.81
425.401	632.81
425.623	680.81
425.846	570.81
426.068	525.81
426.291	534.81
426.513	507.81
426.735	527.81
426.958	600.81
427.18	662.81
427.402	796.81
427.625	882.81
427.847	811.81
428.069	672.81
428.292	573.81
428.514	515.81
428.736	509.81
428.958	502.81
429.181	486.81
429.403	492.81
429.625	492.81
429.847	508.81
430.069	589.81
430.292	590.81
430.514	488.81
430.736	476.81
430.958	464.81
431.18	446.81
431.402	460.81
431.624	439.81
431.846	450.81
432.068	430.81
432.29	439.81
432.512	427.81
432.734	456.81
432.956	449.81
433.178	482.81
433.4	465.81
433.622	452.81
433.844	456.81
434.066	442.81
434.287	450.81
434.509	464.81
434.731	459.81
434.953	459.81
435.175	473.81
435.397	497.81
435.618	516.81
435.84	563.81
436.062	663.81
436.284	752.81
436.505	601.81
436.727	556.81
436.949	527.81
437.17	506.81
437.392	495.81
437.614	503.81
437.835	526.81
438.057	643.81
438.278	758.81
438.5	725.81
438.721	804.81
438.943	785.81
439.165	602.81
439.386	557.81
439.608	535.81
439.829	533.81
440.05	556.81
440.272	631.81
440.493	565.81
440.715	528.81
440.936	513.81
441.158	476.81
441.379	481.81
441.6	506.81
441.822	522.81
442.043	549.81
442.264	642.81
442.486	704.81
442.707	599.81
442.928	527.81
443.149	556.81
443.371	566.81
443.592	591.81
443.813	685.81
444.034	755.81
444.255	612.81
444.476	548.81
444.698	534.81
444.919	523.81
445.14	664.81
445.361	583.81
445.582	581.81
445.803	641.81
446.024	747.81
446.245	753.81
446.466	669.81
446.687	576.81
446.908	540.81
447.129	490.81
447.35	496.81
447.571	492.81
447.792	491.81
448.013	483.81
448.234	489.81
448.455	557.81
448.675	676.81
448.896	790.81
449.117	673.81
449.338	639.81
449.559	745.81
449.779	827.81
450	675.81
450.221	557.81
450.442	505.81
450.662	484.81
450.883	479.81
451.104	491.81
451.324	486.81
451.545	463.81
451.766	485.81
451.986	443.81
452.207	423.81
452.428	435.81
452.648	433.81
452.869	427.81
453.089	449.81
453.31	462.81
453.53	448.81
453.751	454.81
453.971	442.81
454.192	462.81
454.412	449.81
454.633	435.81
454.853	426.81
455.073	417.81
455.294	445.81
455.514	520.81
455.734	513.81
455.955	449.81
456.175	417.81
456.395	421.81
456.616	408.81
456.836	398.81
457.056	421.81
457.276	385.81
457.497	412.81
457.717	417.81
457.937	399.81
458.157	430.81
458.377	421.81
458.598	446.81
458.818	475.81
459.038	581.81
459.258	588.81
459.478	517.81
459.698	483.81
459.918	452.81
460.138	427.81
460.358	440.81
460.578	471.81
460.798	427.81
461.018	458.81
461.238	449.81
461.458	435.81
461.678	443.81
461.898	430.81
462.118	445.81
462.338	450.81
462.558	449.81
462.777	451.81
462.997	468.81
463.217	477.81
463.437	490.81
463.657	484.81
463.876	464.81
464.096	457.81
464.316	465.81
464.536	484.81
464.755	483.81
464.975	475.81
465.195	521.81
465.414	631.81
465.634	531.81
465.854	497.81
466.073	474.81
466.293	450.81
466.512	459.81
466.732	427.81
466.951	433.81
467.171	429.81
467.391	445.81
467.61	452.81
467.829	444.81
468.049	473.81
468.268	462.81
468.488	461.81
468.707	419.81
468.927	405.81
469.146	410.81
469.365	419.81
469.585	431.81
469.804	429.81
470.023	449.81
470.243	461.81
470.462	452.81
470.681	477.81
470.901	461.81
471.12	447.81
471.339	448.81
471.558	446.81
471.777	452.81
471.997	456.81
472.216	472.81
472.435	518.81
472.654	486.81
472.873	437.81
473.092	459.81
473.311	458.81
473.53	452.81
473.749	475.81
473.968	506.81
474.187	631.81
474.406	625.81
474.625	538.81
474.844	479.81
475.063	455.81
475.282	443.81
475.501	421.81
475.72	455.81
475.939	457.81
476.158	482.81
476.377	438.81
476.596	460.81
476.814	471.81
477.033	459.81
477.252	460.81
477.471	469.81
477.69	482.81
477.908	474.81
478.127	467.81
478.346	478.81
478.564	473.81
478.783	493.81
479.002	496.81
479.22	490.81
479.439	519.81
479.658	551.81
479.876	547.81
480.095	548.81
480.313	600.81
480.532	534.81
480.751	553.81
480.969	553.81
481.188	641.81
481.406	709.81
481.624	631.81
481.843	545.81
482.061	556.81
482.28	534.81
482.498	549.81
482.717	538.81
482.935	550.81
483.153	532.81
483.372	515.81
483.59	527.81
483.808	513.81
484.027	529.81
484.245	505.81
484.463	526.81
484.681	517.81
484.9	518.81
485.118	529.81
485.336	541.81
485.554	533.81
485.772	525.81
485.99	548.81
486.209	554.81
486.427	565.81
486.645	560.81
486.863	581.81
487.081	572.81
487.299	561.81
487.517	561.81
487.735	567.81
487.953	583.81
488.171	560.81
488.389	562.81
488.607	554.81
488.825	552.81
489.043	589.81
489.261	576.81
489.479	566.81
489.696	556.81
489.914	577.81
490.132	595.81
490.35	593.81
490.568	593.81
490.786	610.81
491.003	614.81
491.221	613.81
491.439	625.81
491.657	660.81
491.874	657.81
492.092	640.81
492.31	668.81
492.527	648.81
492.745	670.81
492.963	649.81
493.18	676.81
493.398	695.81
493.615	694.81
493.833	674.81
494.05	663.81
494.268	669.81
494.485	677.81
494.703	684.81
494.92	662.81
495.138	659.81
495.355	672.81
495.573	674.81
495.79	662.81
496.008	673.81
496.225	680.81
496.442	684.81
496.66	667.81
496.877	685.81
497.094	675.81
497.312	676.81
497.529	727.81
497.746	702.81
497.963	698.81
498.181	709.81
498.398	726.81
498.615	703.81
498.832	746.81
499.049	715.81
499.267	746.81
499.484	763.81
499.701	750.81
499.918	789.81
500.135	843.81
500.352	842.81
500.569	862.81
500.786	859.81
501.003	876.81
501.22	866.81
501.437	835.81
501.654	808.81
501.871	803.81
