Data from 1989.PennyLincolnUp.Lamp.En5.5.200Scan.071819.P2_HRD10591_17-24-17-973.txt Node
Date: Thu Jul 18 17:24:17 EDT 2019
User: cochatt
Spectrometer: HR+D1059
Trigger mode: 1
Integration Time (sec): 1.000000E-1
Scans to average: 1
Electric dark correction enabled: true
Nonlinearity correction enabled: false
Boxcar width: 0
XAxis mode: Wavelengths
Number of Pixels in Spectrum: 2048
>>>>>Begin Spectral Data<<<<<
223.165	-14.38
223.4	-14.38
223.635	-14.38
223.869	-14.38
224.104	-7.38
224.338	-14.38
224.573	-20.38
224.808	-12.38
225.042	-6.38
225.277	2.62
225.511	8.62
225.746	12.62
225.98	4.62
226.215	-3.38
226.449	4.62
226.683	14.62
226.918	17.62
227.152	27.62
227.387	35.62
227.621	33.62
227.856	55.62
228.09	46.62
228.324	50.62
228.559	48.62
228.793	82.62
229.027	100.62
229.262	113.62
229.496	105.62
229.73	129.62
229.964	146.62
230.199	123.62
230.433	127.62
230.667	116.62
230.901	121.62
231.136	115.62
231.37	113.62
231.604	99.62
231.838	107.62
232.072	124.62
232.306	122.62
232.541	114.62
232.775	116.62
233.009	113.62
233.243	107.62
233.477	119.62
233.711	111.62
233.945	121.62
234.179	124.62
234.413	105.62
234.647	117.62
234.881	115.62
235.115	118.62
235.349	116.62
235.583	131.62
235.817	130.62
236.051	137.62
236.285	129.62
236.519	137.62
236.753	131.62
236.987	151.62
237.221	185.62
237.455	245.62
237.689	195.62
237.922	143.62
238.156	142.62
238.39	131.62
238.624	129.62
238.858	131.62
239.091	123.62
239.325	127.62
239.559	119.62
239.793	124.62
240.027	147.62
240.26	146.62
240.494	159.62
240.728	183.62
240.961	159.62
241.195	151.62
241.429	147.62
241.662	142.62
241.896	138.62
242.13	124.62
242.363	132.62
242.597	136.62
242.83	153.62
243.064	146.62
243.298	115.62
243.531	149.62
243.765	154.62
243.998	140.62
244.232	149.62
244.465	151.62
244.699	153.62
244.932	150.62
245.166	161.62
245.399	145.62
245.633	154.62
245.866	150.62
246.099	142.62
246.333	155.62
246.566	154.62
246.8	156.62
247.033	147.62
247.266	164.62
247.5	177.62
247.733	185.62
247.966	179.62
248.2	191.62
248.433	173.62
248.666	169.62
248.899	185.62
249.133	223.62
249.366	218.62
249.599	230.62
249.832	221.62
250.066	191.62
250.299	183.62
250.532	181.62
250.765	212.62
250.998	222.62
251.231	238.62
251.465	234.62
251.698	211.62
251.931	211.62
252.164	200.62
252.397	207.62
252.63	223.62
252.863	203.62
253.096	222.62
253.329	246.62
253.562	249.62
253.795	222.62
254.028	232.62
254.261	239.62
254.494	243.62
254.727	288.62
254.96	317.62
255.193	305.62
255.426	266.62
255.659	244.62
255.892	227.62
256.124	240.62
256.357	234.62
256.59	231.62
256.823	229.62
257.056	233.62
257.289	215.62
257.521	226.62
257.754	230.62
257.987	229.62
258.22	219.62
258.452	223.62
258.685	236.62
258.918	228.62
259.151	216.62
259.383	226.62
259.616	233.62
259.849	232.62
260.081	258.62
260.314	257.62
260.547	276.62
260.779	264.62
261.012	280.62
261.244	249.62
261.477	250.62
261.71	228.62
261.942	241.62
262.175	257.62
262.407	234.62
262.64	232.62
262.872	224.62
263.105	232.62
263.337	227.62
263.57	226.62
263.802	228.62
264.035	231.62
264.267	228.62
264.499	225.62
264.732	226.62
264.964	242.62
265.197	217.62
265.429	227.62
265.661	224.62
265.894	232.62
266.126	225.62
266.358	230.62
266.591	220.62
266.823	224.62
267.055	230.62
267.287	242.62
267.52	248.62
267.752	240.62
267.984	228.62
268.216	254.62
268.448	255.62
268.681	263.62
268.913	263.62
269.145	272.62
269.377	307.62
269.609	310.62
269.841	299.62
270.073	303.62
270.306	325.62
270.538	321.62
270.77	349.62
271.002	327.62
271.234	320.62
271.466	309.62
271.698	333.62
271.93	361.62
272.162	349.62
272.394	337.62
272.626	325.62
272.858	295.62
273.09	300.62
273.322	307.62
273.553	272.62
273.785	261.62
274.017	283.62
274.249	288.62
274.481	280.62
274.713	279.62
274.945	282.62
275.176	281.62
275.408	287.62
275.64	289.62
275.872	285.62
276.104	275.62
276.335	278.62
276.567	291.62
276.799	318.62
277.031	329.62
277.262	345.62
277.494	347.62
277.726	332.62
277.957	305.62
278.189	292.62
278.421	300.62
278.652	292.62
278.884	279.62
279.115	289.62
279.347	282.62
279.579	295.62
279.81	278.62
280.042	277.62
280.273	284.62
280.505	277.62
280.736	287.62
280.968	276.62
281.199	272.62
281.431	283.62
281.662	259.62
281.894	273.62
282.125	281.62
282.356	306.62
282.588	312.62
282.819	321.62
283.051	295.62
283.282	292.62
283.513	281.62
283.745	283.62
283.976	285.62
284.207	300.62
284.439	273.62
284.67	298.62
284.901	280.62
285.132	307.62
285.364	294.62
285.595	305.62
285.826	303.62
286.057	270.62
286.288	284.62
286.52	296.62
286.751	304.62
286.982	295.62
287.213	305.62
287.444	291.62
287.675	324.62
287.906	289.62
288.138	324.62
288.369	315.62
288.6	304.62
288.831	297.62
289.062	310.62
289.293	298.62
289.524	305.62
289.755	291.62
289.986	281.62
290.217	295.62
290.448	327.62
290.679	293.62
290.91	329.62
291.141	312.62
291.371	293.62
291.602	292.62
291.833	289.62
292.064	307.62
292.295	307.62
292.526	293.62
292.757	309.62
292.987	288.62
293.218	307.62
293.449	324.62
293.68	284.62
293.91	293.62
294.141	320.62
294.372	287.62
294.603	294.62
294.833	320.62
295.064	311.62
295.295	304.62
295.525	313.62
295.756	316.62
295.987	324.62
296.217	339.62
296.448	332.62
296.679	326.62
296.909	299.62
297.14	296.62
297.37	312.62
297.601	322.62
297.831	307.62
298.062	304.62
298.292	298.62
298.523	313.62
298.753	333.62
298.984	309.62
299.214	312.62
299.445	315.62
299.675	305.62
299.905	317.62
300.136	311.62
300.366	328.62
300.597	315.62
300.827	335.62
301.057	333.62
301.288	348.62
301.518	343.62
301.748	348.62
301.979	337.62
302.209	345.62
302.439	326.62
302.669	326.62
302.9	342.62
303.13	350.62
303.36	355.62
303.59	338.62
303.82	368.62
304.051	343.62
304.281	354.62
304.511	341.62
304.741	335.62
304.971	328.62
305.201	328.62
305.431	350.62
305.661	341.62
305.891	345.62
306.121	358.62
306.352	355.62
306.582	351.62
306.812	347.62
307.042	351.62
307.272	347.62
307.502	344.62
307.731	359.62
307.961	354.62
308.191	335.62
308.421	358.62
308.651	349.62
308.881	359.62
309.111	355.62
309.341	375.62
309.571	373.62
309.8	380.62
310.03	379.62
310.26	394.62
310.49	375.62
310.72	399.62
310.949	419.62
311.179	419.62
311.409	412.62
311.639	409.62
311.868	393.62
312.098	409.62
312.328	415.62
312.557	415.62
312.787	444.62
313.017	449.62
313.246	423.62
313.476	403.62
313.706	387.62
313.935	394.62
314.165	410.62
314.394	424.62
314.624	420.62
314.853	408.62
315.083	401.62
315.312	416.62
315.542	388.62
315.771	389.62
316.001	400.62
316.23	377.62
316.46	410.62
316.689	397.62
316.919	403.62
317.148	422.62
317.377	413.62
317.607	421.62
317.836	403.62
318.065	397.62
318.295	394.62
318.524	404.62
318.753	401.62
318.983	394.62
319.212	401.62
319.441	413.62
319.67	415.62
319.9	413.62
320.129	409.62
320.358	383.62
320.587	407.62
320.816	404.62
321.046	441.62
321.275	438.62
321.504	412.62
321.733	425.62
321.962	428.62
322.191	438.62
322.42	469.62
322.649	486.62
322.878	486.62
323.108	499.62
323.337	546.62
323.566	525.62
323.795	579.62
324.024	650.62
324.253	811.62
324.482	1129.62
324.71	1683.62
324.939	2455.62
325.168	2145.62
325.397	1113.62
325.626	740.62
325.855	623.62
326.084	550.62
326.313	539.62
326.542	552.62
326.77	616.62
326.999	709.62
327.228	984.62
327.457	1520.62
327.686	1871.62
327.914	1225.62
328.143	785.62
328.372	703.62
328.6	627.62
328.829	592.62
329.058	614.62
329.287	626.62
329.515	600.62
329.744	546.62
329.972	543.62
330.201	526.62
330.43	578.62
330.658	605.62
330.887	668.62
331.115	635.62
331.344	555.62
331.572	507.62
331.801	528.62
332.03	515.62
332.258	505.62
332.486	497.62
332.715	480.62
332.943	465.62
333.172	447.62
333.4	452.62
333.629	461.62
333.857	480.62
334.085	454.62
334.314	464.62
334.542	489.62
334.771	464.62
334.999	458.62
335.227	472.62
335.455	459.62
335.684	441.62
335.912	447.62
336.14	443.62
336.369	441.62
336.597	472.62
336.825	470.62
337.053	454.62
337.281	442.62
337.51	456.62
337.738	445.62
337.966	455.62
338.194	470.62
338.422	454.62
338.65	447.62
338.878	456.62
339.106	446.62
339.334	445.62
339.562	428.62
339.79	435.62
340.018	437.62
340.246	433.62
340.474	448.62
340.702	453.62
340.93	444.62
341.158	436.62
341.386	435.62
341.614	439.62
341.842	453.62
342.07	460.62
342.298	435.62
342.526	429.62
342.754	411.62
342.981	407.62
343.209	409.62
343.437	435.62
343.665	423.62
343.893	437.62
344.12	449.62
344.348	461.62
344.576	443.62
344.804	447.62
345.031	469.62
345.259	447.62
345.487	450.62
345.714	452.62
345.942	437.62
346.17	421.62
346.397	421.62
346.625	420.62
346.853	429.62
347.08	421.62
347.308	436.62
347.535	427.62
347.763	447.62
347.99	434.62
348.218	451.62
348.445	456.62
348.673	458.62
348.9	424.62
349.128	438.62
349.355	417.62
349.583	409.62
349.81	413.62
350.037	414.62
350.265	410.62
350.492	437.62
350.72	407.62
350.947	435.62
351.174	416.62
351.402	453.62
351.629	441.62
351.856	429.62
352.083	434.62
352.311	460.62
352.538	449.62
352.765	451.62
352.992	435.62
353.22	441.62
353.447	405.62
353.674	408.62
353.901	392.62
354.128	392.62
354.355	395.62
354.583	405.62
354.81	383.62
355.037	405.62
355.264	395.62
355.491	401.62
355.718	388.62
355.945	401.62
356.172	373.62
356.399	392.62
356.626	402.62
356.853	375.62
357.08	384.62
357.307	381.62
357.534	394.62
357.761	407.62
357.988	378.62
358.215	384.62
358.441	394.62
358.668	390.62
358.895	411.62
359.122	391.62
359.349	410.62
359.576	417.62
359.802	426.62
360.029	489.62
360.256	484.62
360.483	464.62
360.709	423.62
360.936	415.62
361.163	416.62
361.39	433.62
361.616	412.62
361.843	411.62
362.07	419.62
362.296	420.62
362.523	446.62
362.749	415.62
362.976	430.62
363.203	415.62
363.429	397.62
363.656	392.62
363.882	407.62
364.109	397.62
364.335	378.62
364.562	385.62
364.788	391.62
365.015	392.62
365.241	376.62
365.468	411.62
365.694	411.62
365.92	402.62
366.147	412.62
366.373	381.62
366.599	408.62
366.826	385.62
367.052	386.62
367.278	387.62
367.505	393.62
367.731	397.62
367.957	394.62
368.184	401.62
368.41	397.62
368.636	405.62
368.862	403.62
369.089	412.62
369.315	405.62
369.541	396.62
369.767	377.62
369.993	380.62
370.219	394.62
370.445	393.62
370.672	378.62
370.898	404.62
371.124	395.62
371.35	379.62
371.576	387.62
371.802	381.62
372.028	376.62
372.254	391.62
372.48	371.62
372.706	377.62
372.932	374.62
373.158	391.62
373.384	373.62
373.61	394.62
373.835	407.62
374.061	413.62
374.287	404.62
374.513	392.62
374.739	385.62
374.965	396.62
375.191	384.62
375.416	391.62
375.642	376.62
375.868	373.62
376.094	367.62
376.319	380.62
376.545	388.62
376.771	372.62
376.997	368.62
377.222	385.62
377.448	363.62
377.674	367.62
377.899	380.62
378.125	368.62
378.35	376.62
378.576	376.62
378.802	369.62
379.027	375.62
379.253	386.62
379.478	383.62
379.704	383.62
379.929	397.62
380.155	378.62
380.38	363.62
380.606	374.62
380.831	369.62
381.057	394.62
381.282	394.62
381.507	392.62
381.733	385.62
381.958	392.62
382.184	379.62
382.409	380.62
382.634	384.62
382.86	385.62
383.085	390.62
383.31	387.62
383.535	393.62
383.761	375.62
383.986	388.62
384.211	383.62
384.436	402.62
384.662	399.62
384.887	400.62
385.112	391.62
385.337	389.62
385.562	406.62
385.787	397.62
386.013	423.62
386.238	396.62
386.463	412.62
386.688	404.62
386.913	401.62
387.138	404.62
387.363	408.62
387.588	402.62
387.813	400.62
388.038	409.62
388.263	405.62
388.488	399.62
388.713	416.62
388.938	413.62
389.163	399.62
389.387	417.62
389.612	399.62
389.837	403.62
390.062	381.62
390.287	409.62
390.512	393.62
390.736	385.62
390.961	397.62
391.186	389.62
391.411	400.62
391.636	402.62
391.86	400.62
392.085	417.62
392.31	412.62
392.534	402.62
392.759	410.62
392.984	401.62
393.208	409.62
393.433	406.62
393.658	396.62
393.882	399.62
394.107	401.62
394.331	409.62
394.556	403.62
394.78	408.62
395.005	415.62
395.229	415.62
395.454	451.62
395.678	407.62
395.903	424.62
396.127	424.62
396.352	452.62
396.576	419.62
396.801	418.62
397.025	432.62
397.249	419.62
397.474	416.62
397.698	416.62
397.922	425.62
398.147	463.62
398.371	426.62
398.595	469.62
398.82	445.62
399.044	453.62
399.268	469.62
399.492	463.62
399.717	496.62
399.941	521.62
400.165	579.62
400.389	581.62
400.613	523.62
400.837	488.62
401.062	465.62
401.286	469.62
401.51	470.62
401.734	456.62
401.958	436.62
402.182	426.62
402.406	468.62
402.63	469.62
402.854	464.62
403.078	474.62
403.302	488.62
403.526	441.62
403.75	479.62
403.974	467.62
404.198	459.62
404.422	448.62
404.645	476.62
404.869	460.62
405.093	498.62
405.317	515.62
405.541	534.62
405.765	523.62
405.988	493.62
406.212	506.62
406.436	528.62
406.66	549.62
406.883	514.62
407.107	529.62
407.331	551.62
407.555	630.62
407.778	636.62
408.002	564.62
408.226	538.62
408.449	544.62
408.673	515.62
408.896	565.62
409.12	593.62
409.344	557.62
409.567	518.62
409.791	479.62
410.014	470.62
410.238	459.62
410.461	459.62
410.685	475.62
410.908	486.62
411.132	502.62
411.355	559.62
411.578	544.62
411.802	471.62
412.025	468.62
412.249	446.62
412.472	468.62
412.695	469.62
412.919	475.62
413.142	472.62
413.365	451.62
413.589	441.62
413.812	438.62
414.035	465.62
414.258	435.62
414.482	421.62
414.705	456.62
414.928	440.62
415.151	444.62
415.374	448.62
415.597	437.62
415.821	424.62
416.044	433.62
416.267	442.62
416.49	446.62
416.713	434.62
416.936	434.62
417.159	451.62
417.382	442.62
417.605	442.62
417.828	435.62
418.051	454.62
418.274	453.62
418.497	462.62
418.72	452.62
418.943	424.62
419.166	457.62
419.389	471.62
419.611	464.62
419.834	460.62
420.057	452.62
420.28	473.62
420.503	439.62
420.726	476.62
420.948	457.62
421.171	524.62
421.394	536.62
421.617	471.62
421.839	484.62
422.062	465.62
422.285	496.62
422.507	543.62
422.73	607.62
422.953	598.62
423.175	525.62
423.398	497.62
423.621	495.62
423.843	504.62
424.066	502.62
424.288	522.62
424.511	559.62
424.733	583.62
424.956	645.62
425.178	625.62
425.401	621.62
425.623	661.62
425.846	563.62
426.068	535.62
426.291	499.62
426.513	509.62
426.735	531.62
426.958	574.62
427.18	655.62
427.402	772.62
427.625	835.62
427.847	739.62
428.069	640.62
428.292	556.62
428.514	531.62
428.736	491.62
428.958	466.62
429.181	461.62
429.403	485.62
429.625	503.62
429.847	500.62
430.069	571.62
430.292	582.62
430.514	488.62
430.736	474.62
430.958	460.62
431.18	472.62
431.402	452.62
431.624	459.62
431.846	417.62
432.068	424.62
432.29	447.62
432.512	436.62
432.734	443.62
432.956	450.62
433.178	467.62
433.4	456.62
433.622	437.62
433.844	449.62
434.066	437.62
434.287	441.62
434.509	445.62
434.731	450.62
434.953	457.62
435.175	474.62
435.397	507.62
435.618	519.62
435.84	548.62
436.062	647.62
436.284	723.62
436.505	583.62
436.727	529.62
436.949	495.62
437.17	475.62
437.392	465.62
437.614	482.62
437.835	533.62
438.057	630.62
438.278	731.62
438.5	712.62
438.721	791.62
438.943	746.62
439.165	596.62
439.386	556.62
439.608	526.62
439.829	523.62
440.05	589.62
440.272	626.62
440.493	579.62
440.715	517.62
440.936	501.62
441.158	474.62
441.379	479.62
441.6	491.62
441.822	501.62
442.043	544.62
442.264	647.62
442.486	679.62
442.707	569.62
442.928	523.62
443.149	528.62
443.371	557.62
443.592	595.62
443.813	688.62
444.034	755.62
444.255	603.62
444.476	544.62
444.698	524.62
444.919	513.62
445.14	615.62
445.361	573.62
445.582	560.62
445.803	617.62
446.024	725.62
446.245	761.62
446.466	623.62
446.687	569.62
446.908	520.62
447.129	491.62
447.35	480.62
447.571	459.62
447.792	459.62
448.013	482.62
448.234	498.62
448.455	544.62
448.675	677.62
448.896	791.62
449.117	649.62
449.338	615.62
449.559	711.62
449.779	800.62
450	640.62
450.221	539.62
450.442	495.62
450.662	488.62
450.883	482.62
451.104	498.62
451.324	487.62
451.545	451.62
451.766	441.62
451.986	423.62
452.207	420.62
452.428	421.62
452.648	425.62
452.869	420.62
453.089	447.62
453.31	463.62
453.53	456.62
453.751	442.62
453.971	438.62
454.192	477.62
454.412	416.62
454.633	416.62
454.853	412.62
455.073	441.62
455.294	466.62
455.514	537.62
455.734	533.62
455.955	436.62
456.175	412.62
456.395	374.62
456.616	385.62
456.836	387.62
457.056	399.62
457.276	395.62
457.497	419.62
457.717	409.62
457.937	389.62
458.157	425.62
458.377	396.62
458.598	448.62
458.818	493.62
459.038	570.62
459.258	575.62
459.478	501.62
459.698	457.62
459.918	451.62
460.138	432.62
460.358	437.62
460.578	423.62
460.798	405.62
461.018	464.62
461.238	415.62
461.458	423.62
461.678	442.62
461.898	443.62
462.118	431.62
462.338	452.62
462.558	453.62
462.777	450.62
462.997	454.62
463.217	457.62
463.437	442.62
463.657	446.62
463.876	428.62
464.096	451.62
464.316	453.62
464.536	467.62
464.755	457.62
464.975	467.62
465.195	507.62
465.414	578.62
465.634	524.62
465.854	481.62
466.073	443.62
466.293	445.62
466.512	437.62
466.732	443.62
466.951	424.62
467.171	420.62
467.391	421.62
467.61	453.62
467.829	443.62
468.049	433.62
468.268	426.62
468.488	435.62
468.707	411.62
468.927	407.62
469.146	404.62
469.365	415.62
469.585	399.62
469.804	409.62
470.023	433.62
470.243	434.62
470.462	431.62
470.681	462.62
470.901	439.62
471.12	456.62
471.339	436.62
471.558	431.62
471.777	446.62
471.997	427.62
472.216	421.62
472.435	444.62
472.654	436.62
472.873	420.62
473.092	428.62
473.311	433.62
473.53	426.62
473.749	435.62
473.968	463.62
474.187	590.62
474.406	613.62
474.625	519.62
474.844	450.62
475.063	442.62
475.282	438.62
475.501	417.62
475.72	435.62
475.939	442.62
476.158	454.62
476.377	453.62
476.596	447.62
476.814	446.62
477.033	480.62
477.252	468.62
477.471	464.62
477.69	450.62
477.908	463.62
478.127	469.62
478.346	465.62
478.564	476.62
478.783	495.62
479.002	468.62
479.22	498.62
479.439	511.62
479.658	528.62
479.876	505.62
480.095	507.62
480.313	528.62
480.532	529.62
480.751	523.62
480.969	516.62
481.188	541.62
481.406	551.62
481.624	513.62
481.843	514.62
482.061	517.62
482.28	502.62
482.498	521.62
482.717	509.62
482.935	498.62
483.153	506.62
483.372	505.62
483.59	492.62
483.808	495.62
484.027	501.62
484.245	501.62
484.463	526.62
484.681	520.62
484.9	515.62
485.118	497.62
485.336	502.62
485.554	519.62
485.772	522.62
485.99	502.62
486.209	547.62
486.427	550.62
486.645	571.62
486.863	569.62
487.081	549.62
487.299	548.62
487.517	560.62
487.735	533.62
487.953	548.62
488.171	536.62
488.389	558.62
488.607	548.62
488.825	544.62
489.043	557.62
489.261	537.62
489.479	539.62
489.696	546.62
489.914	552.62
490.132	555.62
490.35	564.62
490.568	571.62
490.786	604.62
491.003	586.62
491.221	595.62
491.439	604.62
491.657	607.62
491.874	619.62
492.092	636.62
492.31	623.62
492.527	638.62
492.745	618.62
492.963	641.62
493.18	618.62
493.398	633.62
493.615	645.62
493.833	642.62
494.05	632.62
494.268	620.62
494.485	639.62
494.703	613.62
494.92	653.62
495.138	633.62
495.355	645.62
495.573	679.62
495.79	650.62
496.008	648.62
496.225	638.62
496.442	646.62
496.66	636.62
496.877	642.62
497.094	634.62
497.312	668.62
497.529	652.62
497.746	671.62
497.963	659.62
498.181	700.62
498.398	693.62
498.615	707.62
498.832	727.62
499.049	712.62
499.267	732.62
499.484	773.62
499.701	765.62
499.918	795.62
500.135	816.62
500.352	825.62
500.569	827.62
500.786	840.62
501.003	831.62
501.22	830.62
501.437	827.62
501.654	783.62
501.871	799.62
