Data from 1989.PennyLincolnUp.Lamp.En5.5.200Scan.071819.P2_HRD10591_17-24-51-973.txt Node
Date: Thu Jul 18 17:24:51 EDT 2019
User: cochatt
Spectrometer: HR+D1059
Trigger mode: 1
Integration Time (sec): 1.000000E-1
Scans to average: 1
Electric dark correction enabled: true
Nonlinearity correction enabled: false
Boxcar width: 0
XAxis mode: Wavelengths
Number of Pixels in Spectrum: 2048
>>>>>Begin Spectral Data<<<<<
223.165	-26.19
223.4	-26.19
223.635	-26.19
223.869	-3.19
224.104	-11.19
224.338	-7.19
224.573	-12.19
224.808	-14.19
225.042	-5.19
225.277	-4.19
225.511	-8.19
225.746	-5.19
225.98	4.81
226.215	2.81
226.449	21.81
226.683	20.81
226.918	17.81
227.152	28.81
227.387	26.81
227.621	46.81
227.856	53.81
228.09	42.81
228.324	50.81
228.559	54.81
228.793	60.81
229.027	103.81
229.262	103.81
229.496	117.81
229.73	137.81
229.964	166.81
230.199	126.81
230.433	125.81
230.667	119.81
230.901	131.81
231.136	118.81
231.37	119.81
231.604	122.81
231.838	115.81
232.072	117.81
232.306	106.81
232.541	104.81
232.775	120.81
233.009	117.81
233.243	120.81
233.477	117.81
233.711	142.81
233.945	124.81
234.179	109.81
234.413	123.81
234.647	117.81
234.881	112.81
235.115	122.81
235.349	134.81
235.583	124.81
235.817	126.81
236.051	140.81
236.285	130.81
236.519	150.81
236.753	139.81
236.987	150.81
237.221	199.81
237.455	254.81
237.689	209.81
237.922	154.81
238.156	146.81
238.39	127.81
238.624	134.81
238.858	136.81
239.091	127.81
239.325	144.81
239.559	132.81
239.793	149.81
240.027	145.81
240.26	151.81
240.494	165.81
240.728	166.81
240.961	156.81
241.195	155.81
241.429	147.81
241.662	141.81
241.896	137.81
242.13	137.81
242.363	141.81
242.597	141.81
242.83	126.81
243.064	143.81
243.298	150.81
243.531	143.81
243.765	150.81
243.998	142.81
244.232	142.81
244.465	145.81
244.699	141.81
244.932	147.81
245.166	163.81
245.399	158.81
245.633	144.81
245.866	161.81
246.099	172.81
246.333	145.81
246.566	162.81
246.8	164.81
247.033	168.81
247.266	165.81
247.5	182.81
247.733	189.81
247.966	187.81
248.2	186.81
248.433	177.81
248.666	190.81
248.899	200.81
249.133	218.81
249.366	228.81
249.599	221.81
249.832	214.81
250.066	190.81
250.299	188.81
250.532	200.81
250.765	209.81
250.998	231.81
251.231	261.81
251.465	244.81
251.698	239.81
251.931	215.81
252.164	214.81
252.397	230.81
252.63	225.81
252.863	240.81
253.096	254.81
253.329	229.81
253.562	254.81
253.795	240.81
254.028	245.81
254.261	260.81
254.494	259.81
254.727	287.81
254.96	301.81
255.193	300.81
255.426	272.81
255.659	258.81
255.892	237.81
256.124	246.81
256.357	251.81
256.59	250.81
256.823	238.81
257.056	227.81
257.289	240.81
257.521	230.81
257.754	230.81
257.987	241.81
258.22	228.81
258.452	246.81
258.685	240.81
258.918	238.81
259.151	233.81
259.383	247.81
259.616	256.81
259.849	243.81
260.081	269.81
260.314	268.81
260.547	297.81
260.779	276.81
261.012	260.81
261.244	276.81
261.477	259.81
261.71	242.81
261.942	255.81
262.175	264.81
262.407	244.81
262.64	260.81
262.872	227.81
263.105	236.81
263.337	231.81
263.57	242.81
263.802	231.81
264.035	231.81
264.267	233.81
264.499	233.81
264.732	231.81
264.964	224.81
265.197	238.81
265.429	227.81
265.661	236.81
265.894	239.81
266.126	225.81
266.358	233.81
266.591	247.81
266.823	231.81
267.055	245.81
267.287	260.81
267.52	251.81
267.752	263.81
267.984	268.81
268.216	238.81
268.448	256.81
268.681	256.81
268.913	263.81
269.145	284.81
269.377	302.81
269.609	301.81
269.841	303.81
270.073	290.81
270.306	332.81
270.538	341.81
270.77	344.81
271.002	349.81
271.234	318.81
271.466	344.81
271.698	373.81
271.93	350.81
272.162	349.81
272.394	356.81
272.626	347.81
272.858	334.81
273.09	325.81
273.322	315.81
273.553	275.81
273.785	286.81
274.017	288.81
274.249	291.81
274.481	286.81
274.713	290.81
274.945	298.81
275.176	301.81
275.408	299.81
275.64	308.81
275.872	280.81
276.104	289.81
276.335	290.81
276.567	298.81
276.799	318.81
277.031	343.81
277.262	365.81
277.494	363.81
277.726	339.81
277.957	342.81
278.189	303.81
278.421	276.81
278.652	289.81
278.884	287.81
279.115	292.81
279.347	293.81
279.579	303.81
279.81	292.81
280.042	292.81
280.273	294.81
280.505	299.81
280.736	280.81
280.968	283.81
281.199	290.81
281.431	293.81
281.662	282.81
281.894	299.81
282.125	310.81
282.356	319.81
282.588	354.81
282.819	348.81
283.051	303.81
283.282	306.81
283.513	298.81
283.745	287.81
283.976	314.81
284.207	324.81
284.439	299.81
284.67	329.81
284.901	301.81
285.132	290.81
285.364	307.81
285.595	297.81
285.826	295.81
286.057	302.81
286.288	290.81
286.52	300.81
286.751	309.81
286.982	318.81
287.213	308.81
287.444	320.81
287.675	300.81
287.906	322.81
288.138	318.81
288.369	319.81
288.6	308.81
288.831	330.81
289.062	324.81
289.293	307.81
289.524	311.81
289.755	314.81
289.986	315.81
290.217	319.81
290.448	300.81
290.679	310.81
290.91	316.81
291.141	310.81
291.371	310.81
291.602	297.81
291.833	318.81
292.064	298.81
292.295	309.81
292.526	332.81
292.757	313.81
292.987	308.81
293.218	292.81
293.449	314.81
293.68	295.81
293.91	308.81
294.141	318.81
294.372	312.81
294.603	314.81
294.833	293.81
295.064	314.81
295.295	295.81
295.525	307.81
295.756	333.81
295.987	326.81
296.217	351.81
296.448	353.81
296.679	336.81
296.909	288.81
297.14	322.81
297.37	322.81
297.601	313.81
297.831	316.81
298.062	325.81
298.292	335.81
298.523	329.81
298.753	312.81
298.984	326.81
299.214	318.81
299.445	350.81
299.675	331.81
299.905	317.81
300.136	321.81
300.366	332.81
300.597	340.81
300.827	332.81
301.057	327.81
301.288	331.81
301.518	323.81
301.748	332.81
301.979	340.81
302.209	356.81
302.439	355.81
302.669	355.81
302.9	358.81
303.13	351.81
303.36	350.81
303.59	360.81
303.82	370.81
304.051	370.81
304.281	345.81
304.511	332.81
304.741	358.81
304.971	341.81
305.201	364.81
305.431	345.81
305.661	350.81
305.891	357.81
306.121	335.81
306.352	338.81
306.582	362.81
306.812	357.81
307.042	365.81
307.272	347.81
307.502	367.81
307.731	340.81
307.961	366.81
308.191	362.81
308.421	350.81
308.651	375.81
308.881	343.81
309.111	355.81
309.341	372.81
309.571	380.81
309.8	400.81
310.03	394.81
310.26	422.81
310.49	411.81
310.72	416.81
310.949	421.81
311.179	431.81
311.409	412.81
311.639	412.81
311.868	404.81
312.098	399.81
312.328	411.81
312.557	431.81
312.787	438.81
313.017	451.81
313.246	420.81
313.476	404.81
313.706	405.81
313.935	423.81
314.165	430.81
314.394	416.81
314.624	432.81
314.853	437.81
315.083	400.81
315.312	389.81
315.542	394.81
315.771	401.81
316.001	388.81
316.23	398.81
316.46	389.81
316.689	382.81
316.919	406.81
317.148	409.81
317.377	412.81
317.607	421.81
317.836	398.81
318.065	409.81
318.295	405.81
318.524	406.81
318.753	408.81
318.983	412.81
319.212	418.81
319.441	423.81
319.67	424.81
319.9	408.81
320.129	410.81
320.358	415.81
320.587	417.81
320.816	414.81
321.046	427.81
321.275	450.81
321.504	442.81
321.733	441.81
321.962	422.81
322.191	468.81
322.42	462.81
322.649	495.81
322.878	480.81
323.108	524.81
323.337	520.81
323.566	566.81
323.795	598.81
324.024	650.81
324.253	809.81
324.482	1140.81
324.71	1746.81
324.939	2594.81
325.168	2211.81
325.397	1150.81
325.626	758.81
325.855	639.81
326.084	585.81
326.313	555.81
326.542	567.81
326.77	619.81
326.999	726.81
327.228	1022.81
327.457	1538.81
327.686	1906.81
327.914	1267.81
328.143	826.81
328.372	706.81
328.6	667.81
328.829	624.81
329.058	632.81
329.287	663.81
329.515	598.81
329.744	550.81
329.972	560.81
330.201	564.81
330.43	598.81
330.658	658.81
330.887	647.81
331.115	657.81
331.344	570.81
331.572	536.81
331.801	529.81
332.03	514.81
332.258	503.81
332.486	501.81
332.715	488.81
332.943	481.81
333.172	458.81
333.4	490.81
333.629	489.81
333.857	485.81
334.085	488.81
334.314	499.81
334.542	518.81
334.771	523.81
334.999	519.81
335.227	506.81
335.455	470.81
335.684	475.81
335.912	464.81
336.14	451.81
336.369	439.81
336.597	468.81
336.825	490.81
337.053	491.81
337.281	455.81
337.51	460.81
337.738	460.81
337.966	463.81
338.194	462.81
338.422	445.81
338.65	448.81
338.878	441.81
339.106	450.81
339.334	456.81
339.562	438.81
339.79	444.81
340.018	450.81
340.246	454.81
340.474	458.81
340.702	445.81
340.93	440.81
341.158	436.81
341.386	438.81
341.614	440.81
341.842	445.81
342.07	463.81
342.298	444.81
342.526	440.81
342.754	427.81
342.981	430.81
343.209	436.81
343.437	438.81
343.665	439.81
343.893	430.81
344.12	458.81
344.348	428.81
344.576	439.81
344.804	487.81
345.031	480.81
345.259	491.81
345.487	454.81
345.714	444.81
345.942	436.81
346.17	437.81
346.397	444.81
346.625	440.81
346.853	412.81
347.08	414.81
347.308	454.81
347.535	440.81
347.763	434.81
347.99	434.81
348.218	447.81
348.445	457.81
348.673	456.81
348.9	463.81
349.128	450.81
349.355	424.81
349.583	425.81
349.81	421.81
350.037	417.81
350.265	421.81
350.492	421.81
350.72	403.81
350.947	422.81
351.174	438.81
351.402	435.81
351.629	432.81
351.856	447.81
352.083	439.81
352.311	462.81
352.538	460.81
352.765	438.81
352.992	443.81
353.22	440.81
353.447	400.81
353.674	425.81
353.901	410.81
354.128	409.81
354.355	398.81
354.583	398.81
354.81	389.81
355.037	403.81
355.264	401.81
355.491	393.81
355.718	400.81
355.945	378.81
356.172	381.81
356.399	393.81
356.626	371.81
356.853	414.81
357.08	393.81
357.307	367.81
357.534	400.81
357.761	390.81
357.988	400.81
358.215	378.81
358.441	401.81
358.668	379.81
358.895	403.81
359.122	393.81
359.349	414.81
359.576	420.81
359.802	449.81
360.029	489.81
360.256	482.81
360.483	470.81
360.709	449.81
360.936	424.81
361.163	409.81
361.39	438.81
361.616	422.81
361.843	420.81
362.07	445.81
362.296	430.81
362.523	429.81
362.749	434.81
362.976	423.81
363.203	422.81
363.429	397.81
363.656	397.81
363.882	412.81
364.109	402.81
364.335	413.81
364.562	380.81
364.788	396.81
365.015	410.81
365.241	388.81
365.468	428.81
365.694	411.81
365.92	409.81
366.147	390.81
366.373	410.81
366.599	408.81
366.826	399.81
367.052	404.81
367.278	394.81
367.505	390.81
367.731	400.81
367.957	406.81
368.184	391.81
368.41	403.81
368.636	424.81
368.862	425.81
369.089	416.81
369.315	408.81
369.541	400.81
369.767	386.81
369.993	414.81
370.219	402.81
370.445	380.81
370.672	397.81
370.898	394.81
371.124	386.81
371.35	383.81
371.576	368.81
371.802	392.81
372.028	374.81
372.254	405.81
372.48	413.81
372.706	402.81
372.932	392.81
373.158	374.81
373.384	386.81
373.61	383.81
373.835	400.81
374.061	389.81
374.287	399.81
374.513	423.81
374.739	410.81
374.965	412.81
375.191	396.81
375.416	391.81
375.642	394.81
375.868	390.81
376.094	397.81
376.319	401.81
376.545	402.81
376.771	374.81
376.997	396.81
377.222	404.81
377.448	394.81
377.674	381.81
377.899	374.81
378.125	375.81
378.35	373.81
378.576	390.81
378.802	382.81
379.027	381.81
379.253	376.81
379.478	387.81
379.704	393.81
379.929	390.81
380.155	375.81
380.38	366.81
380.606	398.81
380.831	395.81
381.057	398.81
381.282	383.81
381.507	388.81
381.733	397.81
381.958	377.81
382.184	392.81
382.409	403.81
382.634	395.81
382.86	401.81
383.085	409.81
383.31	390.81
383.535	402.81
383.761	390.81
383.986	400.81
384.211	408.81
384.436	406.81
384.662	405.81
384.887	400.81
385.112	397.81
385.337	425.81
385.562	418.81
385.787	420.81
386.013	415.81
386.238	405.81
386.463	418.81
386.688	415.81
386.913	395.81
387.138	398.81
387.363	400.81
387.588	399.81
387.813	401.81
388.038	410.81
388.263	409.81
388.488	397.81
388.713	434.81
388.938	422.81
389.163	396.81
389.387	424.81
389.612	410.81
389.837	398.81
390.062	415.81
390.287	419.81
390.512	406.81
390.736	402.81
390.961	398.81
391.186	400.81
391.411	411.81
391.636	427.81
391.86	407.81
392.085	428.81
392.31	430.81
392.534	429.81
392.759	419.81
392.984	424.81
393.208	408.81
393.433	399.81
393.658	391.81
393.882	396.81
394.107	404.81
394.331	406.81
394.556	410.81
394.78	398.81
395.005	420.81
395.229	428.81
395.454	418.81
395.678	438.81
395.903	446.81
396.127	446.81
396.352	439.81
396.576	429.81
396.801	423.81
397.025	411.81
397.249	424.81
397.474	438.81
397.698	446.81
397.922	452.81
398.147	454.81
398.371	468.81
398.595	437.81
398.82	446.81
399.044	470.81
399.268	485.81
399.492	505.81
399.717	519.81
399.941	527.81
400.165	559.81
400.389	574.81
400.613	544.81
400.837	504.81
401.062	453.81
401.286	462.81
401.51	482.81
401.734	456.81
401.958	452.81
402.182	440.81
402.406	485.81
402.63	485.81
402.854	477.81
403.078	454.81
403.302	462.81
403.526	463.81
403.75	472.81
403.974	467.81
404.198	467.81
404.422	490.81
404.645	468.81
404.869	476.81
405.093	495.81
405.317	524.81
405.541	589.81
405.765	530.81
405.988	521.81
406.212	505.81
406.436	525.81
406.66	564.81
406.883	531.81
407.107	522.81
407.331	588.81
407.555	669.81
407.778	654.81
408.002	595.81
408.226	557.81
408.449	527.81
408.673	555.81
408.896	562.81
409.12	600.81
409.344	557.81
409.567	519.81
409.791	498.81
410.014	479.81
410.238	470.81
410.461	466.81
410.685	474.81
410.908	490.81
411.132	539.81
411.355	569.81
411.578	565.81
411.802	514.81
412.025	464.81
412.249	487.81
412.472	485.81
412.695	519.81
412.919	507.81
413.142	493.81
413.365	477.81
413.589	443.81
413.812	436.81
414.035	462.81
414.258	446.81
414.482	451.81
414.705	422.81
414.928	450.81
415.151	435.81
415.374	430.81
415.597	426.81
415.821	453.81
416.044	450.81
416.267	473.81
416.49	440.81
416.713	446.81
416.936	466.81
417.159	472.81
417.382	449.81
417.605	444.81
417.828	461.81
418.051	467.81
418.274	464.81
418.497	456.81
418.72	444.81
418.943	446.81
419.166	464.81
419.389	492.81
419.611	494.81
419.834	467.81
420.057	479.81
420.28	496.81
420.503	462.81
420.726	461.81
420.948	467.81
421.171	532.81
421.394	567.81
421.617	526.81
421.839	492.81
422.062	460.81
422.285	491.81
422.507	548.81
422.73	628.81
422.953	630.81
423.175	522.81
423.398	491.81
423.621	502.81
423.843	516.81
424.066	551.81
424.288	522.81
424.511	543.81
424.733	577.81
424.956	656.81
425.178	666.81
425.401	657.81
425.623	676.81
425.846	564.81
426.068	542.81
426.291	503.81
426.513	515.81
426.735	534.81
426.958	597.81
427.18	658.81
427.402	786.81
427.625	870.81
427.847	788.81
428.069	655.81
428.292	562.81
428.514	535.81
428.736	504.81
428.958	522.81
429.181	492.81
429.403	483.81
429.625	482.81
429.847	529.81
430.069	587.81
430.292	606.81
430.514	503.81
430.736	488.81
430.958	499.81
431.18	470.81
431.402	436.81
431.624	456.81
431.846	442.81
432.068	437.81
432.29	420.81
432.512	442.81
432.734	444.81
432.956	450.81
433.178	453.81
433.4	489.81
433.622	457.81
433.844	461.81
434.066	443.81
434.287	442.81
434.509	464.81
434.731	440.81
434.953	443.81
435.175	461.81
435.397	507.81
435.618	518.81
435.84	551.81
436.062	654.81
436.284	728.81
436.505	605.81
436.727	548.81
436.949	489.81
437.17	510.81
437.392	489.81
437.614	490.81
437.835	554.81
438.057	630.81
438.278	733.81
438.5	742.81
438.721	774.81
438.943	765.81
439.165	592.81
439.386	532.81
439.608	550.81
439.829	522.81
440.05	578.81
440.272	596.81
440.493	576.81
440.715	543.81
440.936	494.81
441.158	490.81
441.379	514.81
441.6	510.81
441.822	515.81
442.043	570.81
442.264	631.81
442.486	660.81
442.707	578.81
442.928	552.81
443.149	559.81
443.371	548.81
443.592	598.81
443.813	696.81
444.034	757.81
444.255	637.81
444.476	573.81
444.698	529.81
444.919	536.81
445.14	618.81
445.361	590.81
445.582	562.81
445.803	638.81
446.024	757.81
446.245	736.81
446.466	687.81
446.687	572.81
446.908	528.81
447.129	512.81
447.35	498.81
447.571	488.81
447.792	481.81
448.013	480.81
448.234	516.81
448.455	574.81
448.675	666.81
448.896	782.81
449.117	690.81
449.338	672.81
449.559	720.81
449.779	820.81
450	666.81
450.221	551.81
450.442	494.81
450.662	486.81
450.883	488.81
451.104	517.81
451.324	483.81
451.545	463.81
451.766	436.81
451.986	428.81
452.207	431.81
452.428	435.81
452.648	431.81
452.869	434.81
453.089	423.81
453.31	466.81
453.53	442.81
453.751	442.81
453.971	445.81
454.192	474.81
454.412	436.81
454.633	425.81
454.853	432.81
455.073	418.81
455.294	451.81
455.514	528.81
455.734	520.81
455.955	431.81
456.175	414.81
456.395	425.81
456.616	401.81
456.836	393.81
457.056	399.81
457.276	392.81
457.497	389.81
457.717	409.81
457.937	416.81
458.157	403.81
458.377	423.81
458.598	461.81
458.818	497.81
459.038	600.81
459.258	617.81
459.478	515.81
459.698	460.81
459.918	427.81
460.138	446.81
460.358	434.81
460.578	443.81
460.798	446.81
461.018	449.81
461.238	425.81
461.458	445.81
461.678	451.81
461.898	461.81
462.118	437.81
462.338	418.81
462.558	454.81
462.777	456.81
462.997	459.81
463.217	469.81
463.437	478.81
463.657	469.81
463.876	441.81
464.096	464.81
464.316	470.81
464.536	452.81
464.755	476.81
464.975	510.81
465.195	535.81
465.414	616.81
465.634	532.81
465.854	477.81
466.073	477.81
466.293	441.81
466.512	438.81
466.732	427.81
466.951	424.81
467.171	450.81
467.391	441.81
467.61	454.81
467.829	459.81
468.049	422.81
468.268	445.81
468.488	414.81
468.707	421.81
468.927	414.81
469.146	405.81
469.365	438.81
469.585	429.81
469.804	420.81
470.023	448.81
470.243	438.81
470.462	451.81
470.681	464.81
470.901	450.81
471.12	427.81
471.339	431.81
471.558	444.81
471.777	430.81
471.997	411.81
472.216	428.81
472.435	452.81
472.654	452.81
472.873	445.81
473.092	441.81
473.311	445.81
473.53	446.81
473.749	445.81
473.968	495.81
474.187	607.81
474.406	630.81
474.625	504.81
474.844	455.81
475.063	451.81
475.282	429.81
475.501	464.81
475.72	458.81
475.939	439.81
476.158	442.81
476.377	449.81
476.596	459.81
476.814	471.81
477.033	468.81
477.252	458.81
477.471	481.81
477.69	471.81
477.908	479.81
478.127	467.81
478.346	485.81
478.564	490.81
478.783	458.81
479.002	487.81
479.22	488.81
479.439	483.81
479.658	495.81
479.876	512.81
480.095	534.81
480.313	554.81
480.532	552.81
480.751	563.81
480.969	529.81
481.188	563.81
481.406	572.81
481.624	553.81
481.843	536.81
482.061	518.81
482.28	509.81
482.498	523.81
482.717	508.81
482.935	530.81
483.153	524.81
483.372	488.81
483.59	518.81
483.808	528.81
484.027	508.81
484.245	528.81
484.463	519.81
484.681	514.81
484.9	530.81
485.118	513.81
485.336	523.81
485.554	533.81
485.772	527.81
485.99	513.81
486.209	533.81
486.427	550.81
486.645	534.81
486.863	562.81
487.081	573.81
487.299	575.81
487.517	566.81
487.735	538.81
487.953	540.81
488.171	572.81
488.389	553.81
488.607	569.81
488.825	556.81
489.043	564.81
489.261	545.81
489.479	551.81
489.696	558.81
489.914	575.81
490.132	575.81
490.35	590.81
490.568	595.81
490.786	601.81
491.003	606.81
491.221	596.81
491.439	622.81
491.657	656.81
491.874	634.81
492.092	624.81
492.31	638.81
492.527	630.81
492.745	652.81
492.963	658.81
493.18	637.81
493.398	635.81
493.615	638.81
493.833	663.81
494.05	653.81
494.268	674.81
494.485	656.81
494.703	638.81
494.92	657.81
495.138	661.81
495.355	649.81
495.573	668.81
495.79	645.81
496.008	672.81
496.225	654.81
496.442	659.81
496.66	663.81
496.877	665.81
497.094	651.81
497.312	700.81
497.529	679.81
497.746	702.81
497.963	704.81
498.181	697.81
498.398	716.81
498.615	720.81
498.832	726.81
499.049	726.81
499.267	761.81
499.484	762.81
499.701	784.81
499.918	782.81
500.135	842.81
500.352	827.81
500.569	877.81
500.786	848.81
501.003	862.81
501.22	828.81
501.437	820.81
501.654	818.81
501.871	832.81
