Data from 1989.PennyLincolnUp.Lamp.En5.5.200Scan.071819.P2_HRD10591_17-24-21-972.txt Node
Date: Thu Jul 18 17:24:21 EDT 2019
User: cochatt
Spectrometer: HR+D1059
Trigger mode: 1
Integration Time (sec): 1.000000E-1
Scans to average: 1
Electric dark correction enabled: true
Nonlinearity correction enabled: false
Boxcar width: 0
XAxis mode: Wavelengths
Number of Pixels in Spectrum: 2048
>>>>>Begin Spectral Data<<<<<
223.165	-14.75
223.4	-14.75
223.635	-14.75
223.869	-18.75
224.104	-25.75
224.338	-21.75
224.573	-6.75
224.808	-6.75
225.042	-13.75
225.277	-4.75
225.511	6.25
225.746	-0.75
225.98	13.25
226.215	5.25
226.449	16.25
226.683	17.25
226.918	36.25
227.152	19.25
227.387	31.25
227.621	33.25
227.856	40.25
228.09	42.25
228.324	46.25
228.559	37.25
228.793	67.25
229.027	101.25
229.262	117.25
229.496	113.25
229.73	126.25
229.964	169.25
230.199	129.25
230.433	131.25
230.667	125.25
230.901	115.25
231.136	113.25
231.37	103.25
231.604	105.25
231.838	110.25
232.072	118.25
232.306	122.25
232.541	118.25
232.775	129.25
233.009	111.25
233.243	125.25
233.477	117.25
233.711	115.25
233.945	116.25
234.179	130.25
234.413	123.25
234.647	112.25
234.881	122.25
235.115	126.25
235.349	138.25
235.583	119.25
235.817	125.25
236.051	123.25
236.285	133.25
236.519	131.25
236.753	129.25
236.987	142.25
237.221	204.25
237.455	271.25
237.689	192.25
237.922	153.25
238.156	154.25
238.39	128.25
238.624	122.25
238.858	121.25
239.091	127.25
239.325	134.25
239.559	126.25
239.793	140.25
240.027	135.25
240.26	131.25
240.494	163.25
240.728	166.25
240.961	158.25
241.195	146.25
241.429	150.25
241.662	167.25
241.896	133.25
242.13	133.25
242.363	152.25
242.597	143.25
242.83	142.25
243.064	157.25
243.298	142.25
243.531	133.25
243.765	139.25
243.998	157.25
244.232	138.25
244.465	149.25
244.699	142.25
244.932	148.25
245.166	168.25
245.399	146.25
245.633	153.25
245.866	159.25
246.099	155.25
246.333	157.25
246.566	169.25
246.8	165.25
247.033	167.25
247.266	165.25
247.5	161.25
247.733	175.25
247.966	181.25
248.2	181.25
248.433	172.25
248.666	181.25
248.899	187.25
249.133	217.25
249.366	224.25
249.599	219.25
249.832	204.25
250.066	205.25
250.299	197.25
250.532	201.25
250.765	234.25
250.998	247.25
251.231	249.25
251.465	238.25
251.698	231.25
251.931	234.25
252.164	207.25
252.397	207.25
252.63	223.25
252.863	234.25
253.096	232.25
253.329	241.25
253.562	248.25
253.795	251.25
254.028	243.25
254.261	229.25
254.494	253.25
254.727	288.25
254.96	314.25
255.193	287.25
255.426	275.25
255.659	275.25
255.892	264.25
256.124	241.25
256.357	220.25
256.59	225.25
256.823	239.25
257.056	243.25
257.289	223.25
257.521	236.25
257.754	235.25
257.987	220.25
258.22	231.25
258.452	220.25
258.685	247.25
258.918	257.25
259.151	238.25
259.383	234.25
259.616	267.25
259.849	244.25
260.081	277.25
260.314	286.25
260.547	285.25
260.779	272.25
261.012	265.25
261.244	254.25
261.477	255.25
261.71	261.25
261.942	241.25
262.175	270.25
262.407	241.25
262.64	234.25
262.872	261.25
263.105	235.25
263.337	235.25
263.57	256.25
263.802	231.25
264.035	228.25
264.267	211.25
264.499	223.25
264.732	224.25
264.964	230.25
265.197	239.25
265.429	243.25
265.661	215.25
265.894	243.25
266.126	247.25
266.358	241.25
266.591	233.25
266.823	247.25
267.055	263.25
267.287	254.25
267.52	236.25
267.752	237.25
267.984	249.25
268.216	241.25
268.448	264.25
268.681	260.25
268.913	267.25
269.145	270.25
269.377	310.25
269.609	321.25
269.841	296.25
270.073	317.25
270.306	334.25
270.538	360.25
270.77	354.25
271.002	349.25
271.234	331.25
271.466	353.25
271.698	339.25
271.93	350.25
272.162	361.25
272.394	358.25
272.626	341.25
272.858	327.25
273.09	300.25
273.322	313.25
273.553	293.25
273.785	287.25
274.017	296.25
274.249	298.25
274.481	303.25
274.713	286.25
274.945	298.25
275.176	303.25
275.408	294.25
275.64	293.25
275.872	289.25
276.104	294.25
276.335	294.25
276.567	305.25
276.799	300.25
277.031	331.25
277.262	341.25
277.494	340.25
277.726	340.25
277.957	319.25
278.189	302.25
278.421	291.25
278.652	291.25
278.884	299.25
279.115	282.25
279.347	295.25
279.579	308.25
279.81	283.25
280.042	292.25
280.273	299.25
280.505	290.25
280.736	290.25
280.968	262.25
281.199	303.25
281.431	289.25
281.662	286.25
281.894	298.25
282.125	309.25
282.356	309.25
282.588	341.25
282.819	330.25
283.051	319.25
283.282	279.25
283.513	279.25
283.745	285.25
283.976	312.25
284.207	307.25
284.439	322.25
284.67	316.25
284.901	311.25
285.132	296.25
285.364	292.25
285.595	288.25
285.826	308.25
286.057	291.25
286.288	300.25
286.52	307.25
286.751	307.25
286.982	289.25
287.213	297.25
287.444	310.25
287.675	307.25
287.906	317.25
288.138	321.25
288.369	334.25
288.6	329.25
288.831	308.25
289.062	299.25
289.293	315.25
289.524	316.25
289.755	310.25
289.986	316.25
290.217	311.25
290.448	314.25
290.679	328.25
290.91	302.25
291.141	327.25
291.371	303.25
291.602	308.25
291.833	305.25
292.064	306.25
292.295	320.25
292.526	309.25
292.757	309.25
292.987	309.25
293.218	303.25
293.449	323.25
293.68	308.25
293.91	336.25
294.141	305.25
294.372	305.25
294.603	305.25
294.833	307.25
295.064	306.25
295.295	311.25
295.525	310.25
295.756	323.25
295.987	331.25
296.217	356.25
296.448	354.25
296.679	330.25
296.909	307.25
297.14	302.25
297.37	308.25
297.601	331.25
297.831	345.25
298.062	325.25
298.292	332.25
298.523	323.25
298.753	336.25
298.984	318.25
299.214	335.25
299.445	341.25
299.675	321.25
299.905	335.25
300.136	337.25
300.366	328.25
300.597	327.25
300.827	341.25
301.057	349.25
301.288	358.25
301.518	346.25
301.748	355.25
301.979	362.25
302.209	330.25
302.439	331.25
302.669	343.25
302.9	325.25
303.13	359.25
303.36	351.25
303.59	355.25
303.82	360.25
304.051	359.25
304.281	342.25
304.511	354.25
304.741	361.25
304.971	346.25
305.201	353.25
305.431	342.25
305.661	342.25
305.891	351.25
306.121	358.25
306.352	346.25
306.582	349.25
306.812	349.25
307.042	346.25
307.272	349.25
307.502	365.25
307.731	358.25
307.961	342.25
308.191	343.25
308.421	354.25
308.651	364.25
308.881	370.25
309.111	373.25
309.341	352.25
309.571	377.25
309.8	391.25
310.03	397.25
310.26	397.25
310.49	410.25
310.72	410.25
310.949	421.25
311.179	420.25
311.409	403.25
311.639	413.25
311.868	425.25
312.098	405.25
312.328	445.25
312.557	442.25
312.787	447.25
313.017	429.25
313.246	418.25
313.476	416.25
313.706	408.25
313.935	423.25
314.165	429.25
314.394	438.25
314.624	443.25
314.853	435.25
315.083	427.25
315.312	417.25
315.542	387.25
315.771	429.25
316.001	403.25
316.23	395.25
316.46	423.25
316.689	421.25
316.919	404.25
317.148	418.25
317.377	409.25
317.607	417.25
317.836	399.25
318.065	410.25
318.295	405.25
318.524	400.25
318.753	398.25
318.983	405.25
319.212	385.25
319.441	426.25
319.67	431.25
319.9	414.25
320.129	400.25
320.358	441.25
320.587	427.25
320.816	421.25
321.046	441.25
321.275	430.25
321.504	433.25
321.733	433.25
321.962	441.25
322.191	475.25
322.42	459.25
322.649	482.25
322.878	498.25
323.108	487.25
323.337	541.25
323.566	576.25
323.795	593.25
324.024	669.25
324.253	796.25
324.482	1140.25
324.71	1739.25
324.939	2519.25
325.168	2172.25
325.397	1122.25
325.626	731.25
325.855	601.25
326.084	581.25
326.313	559.25
326.542	561.25
326.77	633.25
326.999	728.25
327.228	988.25
327.457	1531.25
327.686	1869.25
327.914	1244.25
328.143	805.25
328.372	694.25
328.6	635.25
328.829	633.25
329.058	639.25
329.287	643.25
329.515	599.25
329.744	547.25
329.972	542.25
330.201	550.25
330.43	567.25
330.658	587.25
330.887	665.25
331.115	659.25
331.344	567.25
331.572	541.25
331.801	510.25
332.03	525.25
332.258	503.25
332.486	485.25
332.715	477.25
332.943	485.25
333.172	467.25
333.4	459.25
333.629	473.25
333.857	484.25
334.085	479.25
334.314	487.25
334.542	475.25
334.771	500.25
334.999	485.25
335.227	466.25
335.455	456.25
335.684	470.25
335.912	471.25
336.14	488.25
336.369	453.25
336.597	460.25
336.825	471.25
337.053	465.25
337.281	464.25
337.51	453.25
337.738	470.25
337.966	459.25
338.194	460.25
338.422	452.25
338.65	459.25
338.878	465.25
339.106	446.25
339.334	455.25
339.562	471.25
339.79	457.25
340.018	456.25
340.246	466.25
340.474	467.25
340.702	446.25
340.93	451.25
341.158	462.25
341.386	438.25
341.614	424.25
341.842	451.25
342.07	457.25
342.298	460.25
342.526	460.25
342.754	434.25
342.981	415.25
343.209	422.25
343.437	415.25
343.665	435.25
343.893	435.25
344.12	457.25
344.348	460.25
344.576	461.25
344.804	457.25
345.031	499.25
345.259	473.25
345.487	462.25
345.714	455.25
345.942	425.25
346.17	431.25
346.397	447.25
346.625	458.25
346.853	435.25
347.08	433.25
347.308	453.25
347.535	442.25
347.763	454.25
347.99	453.25
348.218	458.25
348.445	470.25
348.673	453.25
348.9	461.25
349.128	434.25
349.355	427.25
349.583	405.25
349.81	406.25
350.037	432.25
350.265	430.25
350.492	425.25
350.72	419.25
350.947	439.25
351.174	444.25
351.402	441.25
351.629	457.25
351.856	430.25
352.083	453.25
352.311	453.25
352.538	468.25
352.765	435.25
352.992	428.25
353.22	430.25
353.447	434.25
353.674	421.25
353.901	427.25
354.128	426.25
354.355	412.25
354.583	421.25
354.81	395.25
355.037	398.25
355.264	392.25
355.491	378.25
355.718	408.25
355.945	386.25
356.172	392.25
356.399	399.25
356.626	398.25
356.853	393.25
357.08	386.25
357.307	418.25
357.534	385.25
357.761	385.25
357.988	429.25
358.215	396.25
358.441	401.25
358.668	391.25
358.895	402.25
359.122	412.25
359.349	430.25
359.576	446.25
359.802	464.25
360.029	457.25
360.256	514.25
360.483	478.25
360.709	441.25
360.936	431.25
361.163	434.25
361.39	429.25
361.616	443.25
361.843	441.25
362.07	430.25
362.296	422.25
362.523	434.25
362.749	416.25
362.976	435.25
363.203	413.25
363.429	421.25
363.656	422.25
363.882	416.25
364.109	409.25
364.335	387.25
364.562	411.25
364.788	432.25
365.015	406.25
365.241	411.25
365.468	417.25
365.694	400.25
365.92	411.25
366.147	413.25
366.373	396.25
366.599	410.25
366.826	390.25
367.052	401.25
367.278	400.25
367.505	401.25
367.731	409.25
367.957	418.25
368.184	395.25
368.41	429.25
368.636	421.25
368.862	428.25
369.089	407.25
369.315	396.25
369.541	419.25
369.767	402.25
369.993	406.25
370.219	405.25
370.445	395.25
370.672	393.25
370.898	405.25
371.124	410.25
371.35	388.25
371.576	395.25
371.802	381.25
372.028	379.25
372.254	394.25
372.48	389.25
372.706	401.25
372.932	396.25
373.158	411.25
373.384	409.25
373.61	394.25
373.835	391.25
374.061	398.25
374.287	399.25
374.513	404.25
374.739	402.25
374.965	386.25
375.191	397.25
375.416	425.25
375.642	388.25
375.868	417.25
376.094	394.25
376.319	399.25
376.545	391.25
376.771	382.25
376.997	383.25
377.222	403.25
377.448	397.25
377.674	395.25
377.899	413.25
378.125	397.25
378.35	413.25
378.576	381.25
378.802	378.25
379.027	389.25
379.253	400.25
379.478	388.25
379.704	370.25
379.929	383.25
380.155	392.25
380.38	394.25
380.606	395.25
380.831	411.25
381.057	399.25
381.282	405.25
381.507	369.25
381.733	391.25
381.958	391.25
382.184	389.25
382.409	403.25
382.634	395.25
382.86	391.25
383.085	379.25
383.31	400.25
383.535	399.25
383.761	412.25
383.986	417.25
384.211	411.25
384.436	417.25
384.662	410.25
384.887	404.25
385.112	409.25
385.337	403.25
385.562	436.25
385.787	392.25
386.013	425.25
386.238	448.25
386.463	427.25
386.688	412.25
386.913	403.25
387.138	429.25
387.363	416.25
387.588	391.25
387.813	415.25
388.038	392.25
388.263	415.25
388.488	424.25
388.713	403.25
388.938	413.25
389.163	429.25
389.387	425.25
389.612	404.25
389.837	411.25
390.062	413.25
390.287	430.25
390.512	421.25
390.736	421.25
390.961	427.25
391.186	413.25
391.411	413.25
391.636	422.25
391.86	413.25
392.085	411.25
392.31	430.25
392.534	417.25
392.759	420.25
392.984	413.25
393.208	398.25
393.433	402.25
393.658	411.25
393.882	406.25
394.107	414.25
394.331	421.25
394.556	403.25
394.78	414.25
395.005	444.25
395.229	402.25
395.454	423.25
395.678	425.25
395.903	425.25
396.127	446.25
396.352	459.25
396.576	428.25
396.801	430.25
397.025	426.25
397.249	427.25
397.474	434.25
397.698	441.25
397.922	452.25
398.147	473.25
398.371	482.25
398.595	470.25
398.82	450.25
399.044	462.25
399.268	486.25
399.492	494.25
399.717	518.25
399.941	547.25
400.165	556.25
400.389	593.25
400.613	536.25
400.837	523.25
401.062	517.25
401.286	481.25
401.51	465.25
401.734	467.25
401.958	486.25
402.182	471.25
402.406	489.25
402.63	486.25
402.854	469.25
403.078	481.25
403.302	491.25
403.526	465.25
403.75	474.25
403.974	480.25
404.198	450.25
404.422	484.25
404.645	480.25
404.869	487.25
405.093	510.25
405.317	533.25
405.541	541.25
405.765	501.25
405.988	510.25
406.212	533.25
406.436	535.25
406.66	545.25
406.883	525.25
407.107	545.25
407.331	597.25
407.555	676.25
407.778	653.25
408.002	606.25
408.226	540.25
408.449	542.25
408.673	543.25
408.896	568.25
409.12	607.25
409.344	567.25
409.567	507.25
409.791	487.25
410.014	493.25
410.238	489.25
410.461	468.25
410.685	512.25
410.908	522.25
411.132	533.25
411.355	599.25
411.578	566.25
411.802	512.25
412.025	500.25
412.249	471.25
412.472	466.25
412.695	469.25
412.919	488.25
413.142	483.25
413.365	456.25
413.589	452.25
413.812	437.25
414.035	459.25
414.258	438.25
414.482	428.25
414.705	448.25
414.928	447.25
415.151	447.25
415.374	454.25
415.597	430.25
415.821	441.25
416.044	446.25
416.267	471.25
416.49	461.25
416.713	452.25
416.936	454.25
417.159	453.25
417.382	439.25
417.605	485.25
417.828	467.25
418.051	490.25
418.274	462.25
418.497	471.25
418.72	442.25
418.943	464.25
419.166	453.25
419.389	499.25
419.611	481.25
419.834	475.25
420.057	475.25
420.28	483.25
420.503	491.25
420.726	480.25
420.948	491.25
421.171	533.25
421.394	581.25
421.617	519.25
421.839	474.25
422.062	484.25
422.285	507.25
422.507	550.25
422.73	651.25
422.953	618.25
423.175	554.25
423.398	515.25
423.621	522.25
423.843	531.25
424.066	531.25
424.288	512.25
424.511	543.25
424.733	614.25
424.956	684.25
425.178	669.25
425.401	641.25
425.623	660.25
425.846	581.25
426.068	534.25
426.291	533.25
426.513	532.25
426.735	547.25
426.958	578.25
427.18	647.25
427.402	815.25
427.625	901.25
427.847	772.25
428.069	655.25
428.292	554.25
428.514	533.25
428.736	527.25
428.958	490.25
429.181	481.25
429.403	461.25
429.625	507.25
429.847	535.25
430.069	614.25
430.292	592.25
430.514	503.25
430.736	476.25
430.958	477.25
431.18	470.25
431.402	465.25
431.624	447.25
431.846	439.25
432.068	438.25
432.29	468.25
432.512	441.25
432.734	470.25
432.956	473.25
433.178	474.25
433.4	473.25
433.622	461.25
433.844	461.25
434.066	444.25
434.287	454.25
434.509	467.25
434.731	459.25
434.953	455.25
435.175	491.25
435.397	522.25
435.618	526.25
435.84	542.25
436.062	650.25
436.284	724.25
436.505	622.25
436.727	562.25
436.949	505.25
437.17	491.25
437.392	498.25
437.614	503.25
437.835	549.25
438.057	601.25
438.278	732.25
438.5	713.25
438.721	787.25
438.943	758.25
439.165	618.25
439.386	560.25
439.608	545.25
439.829	564.25
440.05	571.25
440.272	605.25
440.493	574.25
440.715	531.25
440.936	523.25
441.158	499.25
441.379	519.25
441.6	484.25
441.822	527.25
442.043	595.25
442.264	665.25
442.486	707.25
442.707	595.25
442.928	554.25
443.149	564.25
443.371	559.25
443.592	619.25
443.813	705.25
444.034	761.25
444.255	640.25
444.476	561.25
444.698	534.25
444.919	531.25
445.14	620.25
445.361	590.25
445.582	575.25
445.803	651.25
446.024	777.25
446.245	742.25
446.466	681.25
446.687	601.25
446.908	535.25
447.129	489.25
447.35	505.25
447.571	476.25
447.792	468.25
448.013	497.25
448.234	488.25
448.455	563.25
448.675	673.25
448.896	781.25
449.117	679.25
449.338	631.25
449.559	751.25
449.779	831.25
450	674.25
450.221	547.25
450.442	516.25
450.662	500.25
450.883	494.25
451.104	510.25
451.324	488.25
451.545	462.25
451.766	445.25
451.986	447.25
452.207	439.25
452.428	436.25
452.648	437.25
452.869	430.25
453.089	439.25
453.31	473.25
453.53	428.25
453.751	424.25
453.971	441.25
454.192	443.25
454.412	474.25
454.633	425.25
454.853	423.25
455.073	433.25
455.294	453.25
455.514	532.25
455.734	498.25
455.955	436.25
456.175	421.25
456.395	410.25
456.616	411.25
456.836	421.25
457.056	403.25
457.276	398.25
457.497	417.25
457.717	413.25
457.937	405.25
458.157	417.25
458.377	426.25
458.598	446.25
458.818	515.25
459.038	588.25
459.258	601.25
459.478	515.25
459.698	457.25
459.918	451.25
460.138	434.25
460.358	440.25
460.578	433.25
460.798	460.25
461.018	467.25
461.238	452.25
461.458	436.25
461.678	444.25
461.898	454.25
462.118	436.25
462.338	458.25
462.558	430.25
462.777	472.25
462.997	476.25
463.217	477.25
463.437	483.25
463.657	469.25
463.876	460.25
464.096	462.25
464.316	454.25
464.536	490.25
464.755	463.25
464.975	485.25
465.195	550.25
465.414	592.25
465.634	528.25
465.854	486.25
466.073	485.25
466.293	457.25
466.512	454.25
466.732	439.25
466.951	428.25
467.171	433.25
467.391	437.25
467.61	461.25
467.829	466.25
468.049	457.25
468.268	423.25
468.488	419.25
468.707	437.25
468.927	447.25
469.146	404.25
469.365	415.25
469.585	441.25
469.804	444.25
470.023	449.25
470.243	447.25
470.462	450.25
470.681	479.25
470.901	463.25
471.12	421.25
471.339	445.25
471.558	451.25
471.777	433.25
471.997	434.25
472.216	433.25
472.435	430.25
472.654	433.25
472.873	435.25
473.092	424.25
473.311	421.25
473.53	437.25
473.749	457.25
473.968	517.25
474.187	606.25
474.406	631.25
474.625	528.25
474.844	485.25
475.063	450.25
475.282	433.25
475.501	439.25
475.72	470.25
475.939	440.25
476.158	459.25
476.377	466.25
476.596	446.25
476.814	474.25
477.033	488.25
477.252	482.25
477.471	474.25
477.69	472.25
477.908	480.25
478.127	485.25
478.346	477.25
478.564	477.25
478.783	502.25
479.002	489.25
479.22	522.25
479.439	499.25
479.658	523.25
479.876	538.25
480.095	559.25
480.313	569.25
480.532	558.25
480.751	555.25
480.969	533.25
481.188	543.25
481.406	585.25
481.624	541.25
481.843	526.25
482.061	515.25
482.28	516.25
482.498	517.25
482.717	508.25
482.935	521.25
483.153	534.25
483.372	504.25
483.59	513.25
483.808	523.25
484.027	521.25
484.245	517.25
484.463	533.25
484.681	519.25
484.9	522.25
485.118	526.25
485.336	536.25
485.554	541.25
485.772	527.25
485.99	542.25
486.209	540.25
486.427	576.25
486.645	546.25
486.863	573.25
487.081	563.25
487.299	571.25
487.517	565.25
487.735	585.25
487.953	551.25
488.171	557.25
488.389	542.25
488.607	571.25
488.825	570.25
489.043	556.25
489.261	562.25
489.479	567.25
489.696	576.25
489.914	584.25
490.132	600.25
490.35	568.25
490.568	589.25
490.786	591.25
491.003	593.25
491.221	617.25
491.439	622.25
491.657	614.25
491.874	660.25
492.092	627.25
492.31	629.25
492.527	647.25
492.745	646.25
492.963	626.25
493.18	649.25
493.398	645.25
493.615	655.25
493.833	656.25
494.05	643.25
494.268	633.25
494.485	657.25
494.703	660.25
494.92	654.25
495.138	675.25
495.355	682.25
495.573	667.25
495.79	670.25
496.008	669.25
496.225	680.25
496.442	667.25
496.66	675.25
496.877	671.25
497.094	667.25
497.312	675.25
497.529	673.25
497.746	676.25
497.963	693.25
498.181	707.25
498.398	723.25
498.615	722.25
498.832	752.25
499.049	740.25
499.267	769.25
499.484	737.25
499.701	795.25
499.918	815.25
500.135	820.25
500.352	831.25
500.569	872.25
500.786	870.25
501.003	861.25
501.22	841.25
501.437	831.25
501.654	824.25
501.871	868.25
