Data from 1989.PennyLincolnUp.Lamp.En5.5.200Scan.071819.P2_HRD10591_17-25-46-974.txt Node
Date: Thu Jul 18 17:25:46 EDT 2019
User: cochatt
Spectrometer: HR+D1059
Trigger mode: 1
Integration Time (sec): 1.000000E-1
Scans to average: 1
Electric dark correction enabled: true
Nonlinearity correction enabled: false
Boxcar width: 0
XAxis mode: Wavelengths
Number of Pixels in Spectrum: 2048
>>>>>Begin Spectral Data<<<<<
223.165	-15.56
223.4	-15.56
223.635	-15.56
223.869	-25.56
224.104	-7.56
224.338	-10.56
224.573	-19.56
224.808	-18.56
225.042	3.44
225.277	-5.56
225.511	-6.56
225.746	18.44
225.98	3.44
226.215	12.44
226.449	13.44
226.683	12.44
226.918	10.44
227.152	35.44
227.387	28.44
227.621	37.44
227.856	42.44
228.09	32.44
228.324	52.44
228.559	52.44
228.793	69.44
229.027	84.44
229.262	106.44
229.496	114.44
229.73	147.44
229.964	173.44
230.199	140.44
230.433	109.44
230.667	112.44
230.901	106.44
231.136	118.44
231.37	104.44
231.604	122.44
231.838	110.44
232.072	110.44
232.306	116.44
232.541	116.44
232.775	124.44
233.009	121.44
233.243	121.44
233.477	117.44
233.711	125.44
233.945	115.44
234.179	120.44
234.413	113.44
234.647	111.44
234.881	126.44
235.115	128.44
235.349	127.44
235.583	119.44
235.817	131.44
236.051	116.44
236.285	115.44
236.519	135.44
236.753	144.44
236.987	142.44
237.221	196.44
237.455	270.44
237.689	204.44
237.922	154.44
238.156	146.44
238.39	129.44
238.624	141.44
238.858	138.44
239.091	126.44
239.325	126.44
239.559	123.44
239.793	134.44
240.027	136.44
240.26	145.44
240.494	167.44
240.728	165.44
240.961	168.44
241.195	163.44
241.429	151.44
241.662	128.44
241.896	147.44
242.13	148.44
242.363	146.44
242.597	139.44
242.83	141.44
243.064	150.44
243.298	157.44
243.531	149.44
243.765	137.44
243.998	146.44
244.232	141.44
244.465	154.44
244.699	167.44
244.932	158.44
245.166	146.44
245.399	148.44
245.633	146.44
245.866	160.44
246.099	149.44
246.333	171.44
246.566	153.44
246.8	168.44
247.033	165.44
247.266	183.44
247.5	154.44
247.733	198.44
247.966	178.44
248.2	184.44
248.433	186.44
248.666	190.44
248.899	202.44
249.133	221.44
249.366	220.44
249.599	209.44
249.832	208.44
250.066	202.44
250.299	205.44
250.532	220.44
250.765	233.44
250.998	237.44
251.231	250.44
251.465	236.44
251.698	235.44
251.931	225.44
252.164	220.44
252.397	240.44
252.63	224.44
252.863	235.44
253.096	243.44
253.329	262.44
253.562	259.44
253.795	254.44
254.028	226.44
254.261	229.44
254.494	237.44
254.727	281.44
254.96	323.44
255.193	308.44
255.426	288.44
255.659	277.44
255.892	286.44
256.124	287.44
256.357	284.44
256.59	264.44
256.823	240.44
257.056	260.44
257.289	244.44
257.521	259.44
257.754	244.44
257.987	253.44
258.22	243.44
258.452	227.44
258.685	236.44
258.918	229.44
259.151	252.44
259.383	228.44
259.616	242.44
259.849	256.44
260.081	250.44
260.314	281.44
260.547	277.44
260.779	267.44
261.012	260.44
261.244	267.44
261.477	244.44
261.71	234.44
261.942	252.44
262.175	269.44
262.407	268.44
262.64	253.44
262.872	238.44
263.105	247.44
263.337	243.44
263.57	237.44
263.802	236.44
264.035	235.44
264.267	244.44
264.499	240.44
264.732	233.44
264.964	245.44
265.197	240.44
265.429	227.44
265.661	245.44
265.894	234.44
266.126	233.44
266.358	245.44
266.591	243.44
266.823	237.44
267.055	259.44
267.287	263.44
267.52	248.44
267.752	244.44
267.984	288.44
268.216	236.44
268.448	251.44
268.681	264.44
268.913	290.44
269.145	306.44
269.377	317.44
269.609	306.44
269.841	297.44
270.073	323.44
270.306	311.44
270.538	352.44
270.77	353.44
271.002	354.44
271.234	328.44
271.466	334.44
271.698	353.44
271.93	379.44
272.162	361.44
272.394	352.44
272.626	346.44
272.858	316.44
273.09	306.44
273.322	312.44
273.553	297.44
273.785	293.44
274.017	287.44
274.249	304.44
274.481	305.44
274.713	285.44
274.945	292.44
275.176	286.44
275.408	298.44
275.64	293.44
275.872	294.44
276.104	293.44
276.335	305.44
276.567	288.44
276.799	308.44
277.031	332.44
277.262	345.44
277.494	346.44
277.726	322.44
277.957	310.44
278.189	308.44
278.421	296.44
278.652	292.44
278.884	297.44
279.115	306.44
279.347	307.44
279.579	288.44
279.81	283.44
280.042	280.44
280.273	289.44
280.505	299.44
280.736	301.44
280.968	280.44
281.199	292.44
281.431	276.44
281.662	304.44
281.894	283.44
282.125	296.44
282.356	315.44
282.588	328.44
282.819	354.44
283.051	305.44
283.282	288.44
283.513	300.44
283.745	291.44
283.976	299.44
284.207	293.44
284.439	291.44
284.67	282.44
284.901	301.44
285.132	304.44
285.364	301.44
285.595	292.44
285.826	302.44
286.057	309.44
286.288	304.44
286.52	318.44
286.751	305.44
286.982	329.44
287.213	291.44
287.444	320.44
287.675	326.44
287.906	307.44
288.138	340.44
288.369	331.44
288.6	320.44
288.831	317.44
289.062	316.44
289.293	334.44
289.524	316.44
289.755	309.44
289.986	289.44
290.217	308.44
290.448	299.44
290.679	309.44
290.91	313.44
291.141	296.44
291.371	297.44
291.602	305.44
291.833	313.44
292.064	326.44
292.295	302.44
292.526	309.44
292.757	292.44
292.987	295.44
293.218	320.44
293.449	321.44
293.68	308.44
293.91	293.44
294.141	300.44
294.372	324.44
294.603	320.44
294.833	301.44
295.064	306.44
295.295	330.44
295.525	310.44
295.756	316.44
295.987	349.44
296.217	369.44
296.448	354.44
296.679	331.44
296.909	316.44
297.14	325.44
297.37	332.44
297.601	334.44
297.831	316.44
298.062	328.44
298.292	315.44
298.523	326.44
298.753	320.44
298.984	314.44
299.214	311.44
299.445	318.44
299.675	336.44
299.905	321.44
300.136	320.44
300.366	311.44
300.597	339.44
300.827	345.44
301.057	358.44
301.288	349.44
301.518	378.44
301.748	333.44
301.979	356.44
302.209	334.44
302.439	332.44
302.669	333.44
302.9	364.44
303.13	363.44
303.36	350.44
303.59	342.44
303.82	347.44
304.051	363.44
304.281	357.44
304.511	360.44
304.741	349.44
304.971	343.44
305.201	363.44
305.431	347.44
305.661	338.44
305.891	350.44
306.121	358.44
306.352	360.44
306.582	364.44
306.812	358.44
307.042	353.44
307.272	356.44
307.502	362.44
307.731	358.44
307.961	382.44
308.191	363.44
308.421	366.44
308.651	369.44
308.881	367.44
309.111	355.44
309.341	359.44
309.571	377.44
309.8	400.44
310.03	405.44
310.26	397.44
310.49	398.44
310.72	420.44
310.949	424.44
311.179	459.44
311.409	412.44
311.639	416.44
311.868	393.44
312.098	421.44
312.328	406.44
312.557	431.44
312.787	472.44
313.017	438.44
313.246	418.44
313.476	404.44
313.706	407.44
313.935	417.44
314.165	446.44
314.394	459.44
314.624	453.44
314.853	453.44
315.083	420.44
315.312	428.44
315.542	404.44
315.771	405.44
316.001	415.44
316.23	407.44
316.46	391.44
316.689	414.44
316.919	416.44
317.148	419.44
317.377	428.44
317.607	429.44
317.836	426.44
318.065	417.44
318.295	420.44
318.524	402.44
318.753	410.44
318.983	400.44
319.212	419.44
319.441	408.44
319.67	421.44
319.9	410.44
320.129	413.44
320.358	404.44
320.587	427.44
320.816	440.44
321.046	431.44
321.275	427.44
321.504	411.44
321.733	438.44
321.962	439.44
322.191	471.44
322.42	472.44
322.649	499.44
322.878	496.44
323.108	530.44
323.337	566.44
323.566	544.44
323.795	580.44
324.024	666.44
324.253	826.44
324.482	1178.44
324.71	1810.44
324.939	2640.44
325.168	2243.44
325.397	1170.44
325.626	778.44
325.855	658.44
326.084	599.44
326.313	564.44
326.542	585.44
326.77	639.44
326.999	756.44
327.228	1053.44
327.457	1641.44
327.686	1945.44
327.914	1295.44
328.143	845.44
328.372	730.44
328.6	722.44
328.829	646.44
329.058	648.44
329.287	672.44
329.515	645.44
329.744	588.44
329.972	589.44
330.201	610.44
330.43	664.44
330.658	698.44
330.887	713.44
331.115	695.44
331.344	587.44
331.572	560.44
331.801	565.44
332.03	555.44
332.258	539.44
332.486	490.44
332.715	465.44
332.943	485.44
333.172	477.44
333.4	499.44
333.629	491.44
333.857	521.44
334.085	549.44
334.314	556.44
334.542	590.44
334.771	640.44
334.999	572.44
335.227	526.44
335.455	491.44
335.684	481.44
335.912	512.44
336.14	470.44
336.369	478.44
336.597	509.44
336.825	486.44
337.053	458.44
337.281	468.44
337.51	451.44
337.738	456.44
337.966	486.44
338.194	472.44
338.422	484.44
338.65	473.44
338.878	460.44
339.106	462.44
339.334	439.44
339.562	452.44
339.79	474.44
340.018	450.44
340.246	459.44
340.474	476.44
340.702	469.44
340.93	451.44
341.158	451.44
341.386	451.44
341.614	446.44
341.842	442.44
342.07	452.44
342.298	442.44
342.526	458.44
342.754	431.44
342.981	433.44
343.209	431.44
343.437	452.44
343.665	450.44
343.893	421.44
344.12	473.44
344.348	454.44
344.576	433.44
344.804	469.44
345.031	468.44
345.259	467.44
345.487	457.44
345.714	448.44
345.942	467.44
346.17	446.44
346.397	444.44
346.625	427.44
346.853	441.44
347.08	419.44
347.308	450.44
347.535	449.44
347.763	446.44
347.99	454.44
348.218	459.44
348.445	460.44
348.673	468.44
348.9	460.44
349.128	439.44
349.355	415.44
349.583	400.44
349.81	428.44
350.037	424.44
350.265	420.44
350.492	425.44
350.72	412.44
350.947	453.44
351.174	451.44
351.402	437.44
351.629	451.44
351.856	433.44
352.083	437.44
352.311	465.44
352.538	455.44
352.765	449.44
352.992	428.44
353.22	432.44
353.447	423.44
353.674	406.44
353.901	432.44
354.128	400.44
354.355	399.44
354.583	388.44
354.81	397.44
355.037	408.44
355.264	403.44
355.491	414.44
355.718	403.44
355.945	395.44
356.172	412.44
356.399	395.44
356.626	383.44
356.853	423.44
357.08	378.44
357.307	404.44
357.534	378.44
357.761	382.44
357.988	404.44
358.215	384.44
358.441	420.44
358.668	402.44
358.895	404.44
359.122	416.44
359.349	398.44
359.576	435.44
359.802	445.44
360.029	487.44
360.256	505.44
360.483	475.44
360.709	457.44
360.936	442.44
361.163	430.44
361.39	434.44
361.616	434.44
361.843	433.44
362.07	451.44
362.296	433.44
362.523	439.44
362.749	432.44
362.976	406.44
363.203	430.44
363.429	409.44
363.656	397.44
363.882	427.44
364.109	412.44
364.335	421.44
364.562	409.44
364.788	405.44
365.015	425.44
365.241	404.44
365.468	408.44
365.694	404.44
365.92	408.44
366.147	398.44
366.373	408.44
366.599	412.44
366.826	393.44
367.052	390.44
367.278	396.44
367.505	401.44
367.731	416.44
367.957	418.44
368.184	403.44
368.41	425.44
368.636	412.44
368.862	414.44
369.089	412.44
369.315	405.44
369.541	436.44
369.767	426.44
369.993	397.44
370.219	412.44
370.445	398.44
370.672	415.44
370.898	390.44
371.124	402.44
371.35	410.44
371.576	381.44
371.802	382.44
372.028	377.44
372.254	379.44
372.48	391.44
372.706	414.44
372.932	401.44
373.158	396.44
373.384	379.44
373.61	387.44
373.835	410.44
374.061	392.44
374.287	385.44
374.513	387.44
374.739	397.44
374.965	407.44
375.191	394.44
375.416	402.44
375.642	386.44
375.868	395.44
376.094	387.44
376.319	384.44
376.545	404.44
376.771	377.44
376.997	397.44
377.222	383.44
377.448	388.44
377.674	375.44
377.899	376.44
378.125	373.44
378.35	394.44
378.576	383.44
378.802	373.44
379.027	388.44
379.253	383.44
379.478	361.44
379.704	386.44
379.929	373.44
380.155	385.44
380.38	378.44
380.606	382.44
380.831	404.44
381.057	374.44
381.282	377.44
381.507	380.44
381.733	382.44
381.958	389.44
382.184	376.44
382.409	395.44
382.634	398.44
382.86	383.44
383.085	381.44
383.31	380.44
383.535	397.44
383.761	381.44
383.986	388.44
384.211	380.44
384.436	391.44
384.662	416.44
384.887	400.44
385.112	414.44
385.337	396.44
385.562	426.44
385.787	424.44
386.013	414.44
386.238	430.44
386.463	402.44
386.688	413.44
386.913	413.44
387.138	424.44
387.363	419.44
387.588	407.44
387.813	415.44
388.038	411.44
388.263	416.44
388.488	406.44
388.713	402.44
388.938	416.44
389.163	415.44
389.387	408.44
389.612	408.44
389.837	423.44
390.062	388.44
390.287	400.44
390.512	402.44
390.736	420.44
390.961	422.44
391.186	417.44
391.411	424.44
391.636	417.44
391.86	423.44
392.085	428.44
392.31	412.44
392.534	412.44
392.759	403.44
392.984	413.44
393.208	393.44
393.433	410.44
393.658	409.44
393.882	392.44
394.107	398.44
394.331	417.44
394.556	419.44
394.78	410.44
395.005	398.44
395.229	407.44
395.454	412.44
395.678	404.44
395.903	444.44
396.127	458.44
396.352	456.44
396.576	421.44
396.801	430.44
397.025	439.44
397.249	436.44
397.474	444.44
397.698	424.44
397.922	436.44
398.147	469.44
398.371	445.44
398.595	443.44
398.82	444.44
399.044	474.44
399.268	474.44
399.492	468.44
399.717	510.44
399.941	539.44
400.165	578.44
400.389	554.44
400.613	522.44
400.837	493.44
401.062	475.44
401.286	476.44
401.51	477.44
401.734	456.44
401.958	473.44
402.182	476.44
402.406	478.44
402.63	466.44
402.854	482.44
403.078	480.44
403.302	459.44
403.526	475.44
403.75	476.44
403.974	474.44
404.198	475.44
404.422	503.44
404.645	499.44
404.869	516.44
405.093	558.44
405.317	572.44
405.541	605.44
405.765	553.44
405.988	516.44
406.212	544.44
406.436	537.44
406.66	554.44
406.883	521.44
407.107	549.44
407.331	587.44
407.555	667.44
407.778	645.44
408.002	582.44
408.226	561.44
408.449	554.44
408.673	530.44
408.896	549.44
409.12	606.44
409.344	569.44
409.567	534.44
409.791	486.44
410.014	462.44
410.238	474.44
410.461	480.44
410.685	478.44
410.908	491.44
411.132	543.44
411.355	581.44
411.578	537.44
411.802	500.44
412.025	494.44
412.249	496.44
412.472	536.44
412.695	571.44
412.919	561.44
413.142	509.44
413.365	470.44
413.589	439.44
413.812	490.44
414.035	459.44
414.258	454.44
414.482	453.44
414.705	422.44
414.928	466.44
415.151	453.44
415.374	446.44
415.597	430.44
415.821	437.44
416.044	448.44
416.267	468.44
416.49	443.44
416.713	428.44
416.936	442.44
417.159	447.44
417.382	462.44
417.605	462.44
417.828	464.44
418.051	493.44
418.274	454.44
418.497	457.44
418.72	453.44
418.943	443.44
419.166	452.44
419.389	496.44
419.611	503.44
419.834	489.44
420.057	482.44
420.28	489.44
420.503	499.44
420.726	496.44
420.948	492.44
421.171	517.44
421.394	567.44
421.617	521.44
421.839	500.44
422.062	488.44
422.285	489.44
422.507	578.44
422.73	623.44
422.953	604.44
423.175	520.44
423.398	513.44
423.621	493.44
423.843	530.44
424.066	520.44
424.288	534.44
424.511	546.44
424.733	599.44
424.956	668.44
425.178	661.44
425.401	654.44
425.623	666.44
425.846	600.44
426.068	548.44
426.291	538.44
426.513	521.44
426.735	517.44
426.958	565.44
427.18	662.44
427.402	795.44
427.625	875.44
427.847	795.44
428.069	685.44
428.292	585.44
428.514	522.44
428.736	502.44
428.958	498.44
429.181	491.44
429.403	493.44
429.625	498.44
429.847	523.44
430.069	592.44
430.292	580.44
430.514	499.44
430.736	482.44
430.958	489.44
431.18	445.44
431.402	462.44
431.624	439.44
431.846	432.44
432.068	445.44
432.29	461.44
432.512	447.44
432.734	449.44
432.956	449.44
433.178	483.44
433.4	473.44
433.622	442.44
433.844	444.44
434.066	451.44
434.287	458.44
434.509	456.44
434.731	454.44
434.953	467.44
435.175	481.44
435.397	490.44
435.618	529.44
435.84	582.44
436.062	653.44
436.284	711.44
436.505	594.44
436.727	546.44
436.949	518.44
437.17	478.44
437.392	501.44
437.614	481.44
437.835	552.44
438.057	630.44
438.278	721.44
438.5	725.44
438.721	800.44
438.943	782.44
439.165	602.44
439.386	566.44
439.608	529.44
439.829	541.44
440.05	532.44
440.272	619.44
440.493	588.44
440.715	542.44
440.936	514.44
441.158	490.44
441.379	482.44
441.6	478.44
441.822	515.44
442.043	538.44
442.264	692.44
442.486	706.44
442.707	593.44
442.928	548.44
443.149	564.44
443.371	580.44
443.592	630.44
443.813	703.44
444.034	764.44
444.255	630.44
444.476	561.44
444.698	522.44
444.919	520.44
445.14	658.44
445.361	593.44
445.582	574.44
445.803	646.44
446.024	779.44
446.245	758.44
446.466	658.44
446.687	590.44
446.908	528.44
447.129	482.44
447.35	465.44
447.571	494.44
447.792	476.44
448.013	483.44
448.234	521.44
448.455	576.44
448.675	672.44
448.896	787.44
449.117	681.44
449.338	616.44
449.559	730.44
449.779	844.44
450	678.44
450.221	551.44
450.442	498.44
450.662	480.44
450.883	483.44
451.104	518.44
451.324	485.44
451.545	440.44
451.766	460.44
451.986	428.44
452.207	432.44
452.428	447.44
452.648	428.44
452.869	437.44
453.089	452.44
453.31	436.44
453.53	445.44
453.751	428.44
453.971	444.44
454.192	466.44
454.412	459.44
454.633	441.44
454.853	420.44
455.073	413.44
455.294	462.44
455.514	534.44
455.734	503.44
455.955	432.44
456.175	408.44
456.395	404.44
456.616	402.44
456.836	404.44
457.056	418.44
457.276	410.44
457.497	405.44
457.717	398.44
457.937	398.44
458.157	418.44
458.377	437.44
458.598	442.44
458.818	524.44
459.038	602.44
459.258	600.44
459.478	533.44
459.698	468.44
459.918	439.44
460.138	447.44
460.358	444.44
460.578	436.44
460.798	443.44
461.018	446.44
461.238	437.44
461.458	454.44
461.678	433.44
461.898	448.44
462.118	442.44
462.338	450.44
462.558	462.44
462.777	442.44
462.997	455.44
463.217	452.44
463.437	472.44
463.657	478.44
463.876	467.44
464.096	483.44
464.316	466.44
464.536	476.44
464.755	467.44
464.975	496.44
465.195	550.44
465.414	614.44
465.634	557.44
465.854	486.44
466.073	454.44
466.293	472.44
466.512	454.44
466.732	411.44
466.951	438.44
467.171	425.44
467.391	436.44
467.61	453.44
467.829	457.44
468.049	459.44
468.268	453.44
468.488	444.44
468.707	401.44
468.927	422.44
469.146	416.44
469.365	429.44
469.585	408.44
469.804	441.44
470.023	449.44
470.243	437.44
470.462	460.44
470.681	480.44
470.901	448.44
471.12	438.44
471.339	462.44
471.558	450.44
471.777	418.44
471.997	429.44
472.216	448.44
472.435	516.44
472.654	485.44
472.873	461.44
473.092	433.44
473.311	446.44
473.53	438.44
473.749	456.44
473.968	483.44
474.187	618.44
474.406	652.44
474.625	542.44
474.844	481.44
475.063	448.44
475.282	443.44
475.501	450.44
475.72	458.44
475.939	428.44
476.158	446.44
476.377	461.44
476.596	453.44
476.814	469.44
477.033	476.44
477.252	459.44
477.471	460.44
477.69	462.44
477.908	476.44
478.127	487.44
478.346	488.44
478.564	497.44
478.783	509.44
479.002	487.44
479.22	492.44
479.439	517.44
479.658	512.44
479.876	538.44
480.095	547.44
480.313	580.44
480.532	553.44
480.751	558.44
480.969	580.44
481.188	664.44
481.406	710.44
481.624	616.44
481.843	536.44
482.061	532.44
482.28	514.44
482.498	484.44
482.717	512.44
482.935	509.44
483.153	512.44
483.372	492.44
483.59	514.44
483.808	512.44
484.027	494.44
484.245	513.44
484.463	540.44
484.681	528.44
484.9	538.44
485.118	529.44
485.336	557.44
485.554	550.44
485.772	549.44
485.99	535.44
486.209	550.44
486.427	536.44
486.645	553.44
486.863	565.44
487.081	570.44
487.299	556.44
487.517	554.44
487.735	558.44
487.953	574.44
488.171	573.44
488.389	586.44
488.607	560.44
488.825	581.44
489.043	578.44
489.261	557.44
489.479	566.44
489.696	582.44
489.914	576.44
490.132	590.44
490.35	612.44
490.568	589.44
490.786	586.44
491.003	620.44
491.221	625.44
491.439	642.44
491.657	661.44
491.874	644.44
492.092	674.44
492.31	654.44
492.527	664.44
492.745	664.44
492.963	650.44
493.18	670.44
493.398	666.44
493.615	683.44
493.833	662.44
494.05	684.44
494.268	682.44
494.485	660.44
494.703	689.44
494.92	654.44
495.138	666.44
495.355	665.44
495.573	672.44
495.79	662.44
496.008	677.44
496.225	663.44
496.442	677.44
496.66	684.44
496.877	677.44
497.094	677.44
497.312	679.44
497.529	684.44
497.746	679.44
497.963	700.44
498.181	720.44
498.398	730.44
498.615	731.44
498.832	727.44
499.049	739.44
499.267	753.44
499.484	776.44
499.701	764.44
499.918	804.44
500.135	808.44
500.352	852.44
500.569	846.44
500.786	860.44
501.003	839.44
501.22	849.44
501.437	814.44
501.654	807.44
501.871	836.44
